Channel			  :,CH1
Frequency			  :,F=  ?
Period 			  :,T=  ?
PK-PK				  :,Vpp=4.480V
Average			  :,V=1.200mV
Vertical pos		  :,0.00mV
Probe attenuation	  :,10X
Voltage per ADC value:,40.00mV
Time interval		  :,0.02uS

index,CH1_Voltage(mV)
0,0.00
1,0.00
2,0.00
3,0.00
4,0.00
5,0.00
6,0.00
7,0.00
8,0.00
9,0.00
10,0.00
11,0.00
12,0.00
13,0.00
14,0.00
15,0.00
16,0.00
17,0.00
18,0.00
19,0.00
20,0.00
21,0.00
22,0.00
23,0.00
24,0.00
25,0.00
26,0.00
27,0.00
28,0.00
29,0.00
30,0.00
31,0.00
32,0.00
33,0.00
34,0.00
35,0.00
36,0.00
37,0.00
38,0.00
39,0.00
40,0.00
41,0.00
42,0.00
43,0.00
44,0.00
45,0.00
46,40.00
47,0.00
48,0.00
49,0.00
50,0.00
51,0.00
52,0.00
53,0.00
54,0.00
55,0.00
56,0.00
57,0.00
58,0.00
59,0.00
60,0.00
61,0.00
62,0.00
63,0.00
64,0.00
65,0.00
66,0.00
67,0.00
68,0.00
69,0.00
70,0.00
71,0.00
72,0.00
73,0.00
74,0.00
75,0.00
76,0.00
77,0.00
78,0.00
79,0.00
80,0.00
81,0.00
82,0.00
83,0.00
84,0.00
85,0.00
86,0.00
87,0.00
88,0.00
89,0.00
90,0.00
91,0.00
92,0.00
93,0.00
94,0.00
95,0.00
96,0.00
97,0.00
98,0.00
99,0.00
100,0.00
101,0.00
102,0.00
103,0.00
104,0.00
105,0.00
106,0.00
107,0.00
108,0.00
109,0.00
110,0.00
111,0.00
112,0.00
113,0.00
114,0.00
115,0.00
116,0.00
117,0.00
118,0.00
119,0.00
120,0.00
121,0.00
122,0.00
123,0.00
124,0.00
125,0.00
126,0.00
127,0.00
128,0.00
129,0.00
130,0.00
131,0.00
132,0.00
133,0.00
134,0.00
135,0.00
136,0.00
137,0.00
138,0.00
139,0.00
140,0.00
141,0.00
142,0.00
143,0.00
144,0.00
145,0.00
146,0.00
147,0.00
148,0.00
149,0.00
150,0.00
151,0.00
152,0.00
153,0.00
154,0.00
155,0.00
156,0.00
157,0.00
158,0.00
159,0.00
160,0.00
161,0.00
162,0.00
163,0.00
164,0.00
165,0.00
166,0.00
167,0.00
168,0.00
169,0.00
170,0.00
171,0.00
172,0.00
173,0.00
174,0.00
175,0.00
176,0.00
177,0.00
178,0.00
179,0.00
180,0.00
181,0.00
182,0.00
183,0.00
184,0.00
185,0.00
186,0.00
187,0.00
188,0.00
189,0.00
190,0.00
191,0.00
192,0.00
193,0.00
194,0.00
195,0.00
196,0.00
197,0.00
198,0.00
199,0.00
200,0.00
201,0.00
202,0.00
203,0.00
204,0.00
205,0.00
206,0.00
207,0.00
208,0.00
209,0.00
210,0.00
211,0.00
212,0.00
213,0.00
214,0.00
215,0.00
216,0.00
217,0.00
218,0.00
219,0.00
220,0.00
221,0.00
222,0.00
223,0.00
224,0.00
225,0.00
226,0.00
227,0.00
228,0.00
229,0.00
230,0.00
231,0.00
232,0.00
233,0.00
234,0.00
235,0.00
236,0.00
237,0.00
238,40.00
239,0.00
240,0.00
241,0.00
242,0.00
243,0.00
244,0.00
245,0.00
246,0.00
247,0.00
248,0.00
249,0.00
250,0.00
251,0.00
252,0.00
253,0.00
254,0.00
255,0.00
256,0.00
257,0.00
258,0.00
259,0.00
260,0.00
261,0.00
262,0.00
263,0.00
264,0.00
265,40.00
266,0.00
267,0.00
268,0.00
269,0.00
270,0.00
271,0.00
272,0.00
273,0.00
274,0.00
275,0.00
276,0.00
277,0.00
278,0.00
279,0.00
280,0.00
281,0.00
282,0.00
283,0.00
284,0.00
285,0.00
286,0.00
287,0.00
288,0.00
289,0.00
290,0.00
291,0.00
292,0.00
293,0.00
294,0.00
295,0.00
296,0.00
297,0.00
298,40.00
299,0.00
300,0.00
301,0.00
302,0.00
303,0.00
304,0.00
305,0.00
306,40.00
307,0.00
308,40.00
309,0.00
310,0.00
311,0.00
312,0.00
313,0.00
314,0.00
315,0.00
316,0.00
317,0.00
318,40.00
319,0.00
320,0.00
321,0.00
322,0.00
323,40.00
324,0.00
325,40.00
326,0.00
327,0.00
328,0.00
329,0.00
330,0.00
331,0.00
332,40.00
333,0.00
334,0.00
335,0.00
336,40.00
337,0.00
338,40.00
339,0.00
340,0.00
341,0.00
342,0.00
343,0.00
344,0.00
345,0.00
346,0.00
347,0.00
348,0.00
349,0.00
350,0.00
351,0.00
352,0.00
353,0.00
354,40.00
355,40.00
356,0.00
357,0.00
358,0.00
359,40.00
360,0.00
361,0.00
362,0.00
363,0.00
364,0.00
365,0.00
366,0.00
367,40.00
368,0.00
369,0.00
370,0.00
371,0.00
372,0.00
373,0.00
374,40.00
375,0.00
376,0.00
377,0.00
378,40.00
379,40.00
380,0.00
381,0.00
382,0.00
383,0.00
384,40.00
385,0.00
386,0.00
387,0.00
388,0.00
389,0.00
390,40.00
391,0.00
392,0.00
393,0.00
394,0.00
395,0.00
396,0.00
397,0.00
398,0.00
399,0.00
400,0.00
401,0.00
402,40.00
403,0.00
404,0.00
405,0.00
406,0.00
407,0.00
408,0.00
409,0.00
410,0.00
411,40.00
412,0.00
413,40.00
414,0.00
415,40.00
416,0.00
417,0.00
418,0.00
419,0.00
420,0.00
421,0.00
422,0.00
423,0.00
424,0.00
425,0.00
426,40.00
427,0.00
428,0.00
429,0.00
430,0.00
431,0.00
432,0.00
433,0.00
434,0.00
435,0.00
436,40.00
437,0.00
438,0.00
439,0.00
440,0.00
441,0.00
442,0.00
443,40.00
444,0.00
445,0.00
446,0.00
447,0.00
448,0.00
449,0.00
450,0.00
451,0.00
452,0.00
453,0.00
454,0.00
455,0.00
456,0.00
457,0.00
458,0.00
459,0.00
460,0.00
461,0.00
462,0.00
463,0.00
464,0.00
465,0.00
466,0.00
467,0.00
468,0.00
469,0.00
470,0.00
471,0.00
472,0.00
473,0.00
474,0.00
475,0.00
476,0.00
477,0.00
478,0.00
479,0.00
480,0.00
481,0.00
482,0.00
483,0.00
484,0.00
485,0.00
486,0.00
487,0.00
488,0.00
489,0.00
490,0.00
491,0.00
492,0.00
493,0.00
494,0.00
495,40.00
496,0.00
497,0.00
498,0.00
499,0.00
500,0.00
501,0.00
502,0.00
503,0.00
504,0.00
505,0.00
506,40.00
507,0.00
508,0.00
509,0.00
510,0.00
511,0.00
512,-680.00
513,-2040.00
514,-1800.00
515,40.00
516,1880.00
517,2040.00
518,1640.00
519,1440.00
520,1200.00
521,320.00
522,-1560.00
523,-2240.00
524,-1760.00
525,-1480.00
526,-1280.00
527,-760.00
528,1160.00
529,2240.00
530,1800.00
531,1480.00
532,1320.00
533,1040.00
534,-680.00
535,-2160.00
536,-1880.00
537,-1560.00
538,-1360.00
539,-1160.00
540,200.00
541,1920.00
542,2040.00
543,1680.00
544,1440.00
545,1200.00
546,320.00
547,-1560.00
548,-2240.00
549,-1760.00
550,-1480.00
551,-1280.00
552,-800.00
553,1160.00
554,2240.00
555,1800.00
556,1520.00
557,1360.00
558,1040.00
559,-680.00
560,-2160.00
561,-1880.00
562,-1560.00
563,-1360.00
564,-1160.00
565,200.00
566,1920.00
567,2040.00
568,1680.00
569,1440.00
570,1200.00
571,320.00
572,-1560.00
573,-2240.00
574,-1760.00
575,-1480.00
576,-1280.00
577,-800.00
578,1160.00
579,2240.00
580,1800.00
581,1520.00
582,1360.00
583,1040.00
584,-680.00
585,-2160.00
586,-1920.00
587,-1560.00
588,-1360.00
589,-1160.00
590,200.00
591,1920.00
592,2080.00
593,1680.00
594,1440.00
595,1200.00
596,320.00
597,-1560.00
598,-2200.00
599,-1760.00
600,-720.00
601,1200.00
602,2240.00
603,1800.00
604,1520.00
605,1360.00
606,1040.00
607,-680.00
608,-2160.00
609,-1840.00
610,-1560.00
611,-1360.00
612,-1120.00
613,200.00
614,1960.00
615,2040.00
616,1640.00
617,1440.00
618,1200.00
619,320.00
620,-1560.00
621,-2240.00
622,-1760.00
623,-1440.00
624,-1280.00
625,-760.00
626,1200.00
627,2240.00
628,1800.00
629,1520.00
630,1360.00
631,1080.00
632,-680.00
633,-2160.00
634,-1920.00
635,-1560.00
636,-1360.00
637,-1160.00
638,200.00
639,1960.00
640,2080.00
641,1640.00
642,1440.00
643,1240.00
644,320.00
645,-1560.00
646,-2240.00
647,-1760.00
648,-1480.00
649,-1280.00
650,-760.00
651,1160.00
652,2240.00
653,1800.00
654,1480.00
655,1360.00
656,1040.00
657,-680.00
658,-2160.00
659,-1880.00
660,-1600.00
661,-1360.00
662,-1160.00
663,200.00
664,1960.00
665,2040.00
666,1640.00
667,1440.00
668,1200.00
669,320.00
670,-1560.00
671,-2200.00
672,-1760.00
673,-1480.00
674,-1280.00
675,-760.00
676,1160.00
677,2240.00
678,1800.00
679,1480.00
680,1320.00
681,1080.00
682,-640.00
683,-2160.00
684,-1960.00
685,-1560.00
686,-1360.00
687,-1160.00
688,160.00
689,1920.00
690,2080.00
691,1680.00
692,1440.00
693,1200.00
694,360.00
695,-1560.00
696,-2200.00
697,-1760.00
698,-1480.00
699,-1280.00
700,-800.00
701,1160.00
702,2240.00
703,1800.00
704,1520.00
705,1360.00
706,1040.00
707,-680.00
708,-2160.00
709,-1840.00
710,-1560.00
711,-1360.00
712,-1160.00
713,200.00
714,1920.00
715,2080.00
716,1680.00
717,1440.00
718,1200.00
719,320.00
720,-1560.00
721,-2240.00
722,-1760.00
723,-1480.00
724,-1280.00
725,-800.00
726,1160.00
727,2240.00
728,1800.00
729,1520.00
730,1360.00
731,1040.00
732,-680.00
733,-2160.00
734,-1880.00
735,-1600.00
736,-1360.00
737,-1160.00
738,200.00
739,1920.00
740,2040.00
741,1680.00
742,1440.00
743,1240.00
744,360.00
745,-1560.00
746,-2240.00
747,-1760.00
748,-1480.00
749,-1280.00
750,-800.00
751,1120.00
752,2240.00
753,1800.00
754,1520.00
755,1360.00
756,1040.00
757,-680.00
758,-2160.00
759,-2000.00
760,-1600.00
761,-1360.00
762,-1160.00
763,200.00
764,1920.00
765,2080.00
766,1640.00
767,1440.00
768,1200.00
769,320.00
770,-1560.00
771,-2240.00
772,-1760.00
773,-1440.00
774,-1280.00
775,-800.00
776,1160.00
777,2240.00
778,1800.00
779,1520.00
780,1320.00
781,1040.00
782,-640.00
783,-2160.00
784,-1960.00
785,-1560.00
786,-1360.00
787,-1160.00
788,200.00
789,1920.00
790,2040.00
791,1680.00
792,1440.00
793,1200.00
794,320.00
795,-1560.00
796,-2240.00
797,-1760.00
798,-1480.00
799,-1280.00
800,-840.00
801,1160.00
802,2240.00
803,1800.00
804,1520.00
805,1360.00
806,1040.00
807,-680.00
808,-2160.00
809,-1920.00
810,-1600.00
811,-1360.00
812,-1160.00
813,200.00
814,1920.00
815,2040.00
816,1640.00
817,1440.00
818,1200.00
819,320.00
820,-1560.00
821,-2200.00
822,-1760.00
823,-1440.00
824,-1280.00
825,-760.00
826,1160.00
827,2240.00
828,1800.00
829,1520.00
830,1360.00
831,1040.00
832,-680.00
833,-2160.00
834,-1920.00
835,-1600.00
836,-1360.00
837,-1160.00
838,200.00
839,1920.00
840,2040.00
841,1640.00
842,1440.00
843,1240.00
844,320.00
845,-1560.00
846,-2240.00
847,-1760.00
848,-1480.00
849,-1280.00
850,-800.00
851,1160.00
852,2240.00
853,1800.00
854,1520.00
855,1360.00
856,1040.00
857,-680.00
858,-2160.00
859,-1880.00
860,-1600.00
861,-1360.00
862,-1160.00
863,200.00
864,1920.00
865,2040.00
866,1640.00
867,1440.00
868,1200.00
869,320.00
870,-1560.00
871,-2200.00
872,-1800.00
873,-1480.00
874,-1280.00
875,-800.00
876,1160.00
877,2240.00
878,1800.00
879,1480.00
880,1360.00
881,1040.00
882,-680.00
883,-2160.00
884,-1840.00
885,-1600.00
886,-1360.00
887,-1160.00
888,200.00
889,1960.00
890,2040.00
891,1680.00
892,1440.00
893,1200.00
894,320.00
895,-1560.00
896,-2240.00
897,-1760.00
898,-1480.00
899,-1280.00
900,-800.00
901,1160.00
902,2240.00
903,1320.00
904,-880.00
905,-2160.00
906,-1520.00
907,600.00
908,2080.00
909,1680.00
910,-320.00
911,-1960.00
912,-1800.00
913,0.00
914,1840.00
915,1960.00
916,240.00
917,-1640.00
918,-2080.00
919,-560.00
920,1440.00
921,2160.00
922,880.00
923,-1280.00
924,-2200.00
925,-1120.00
926,1080.00
927,2200.00
928,1320.00
929,-840.00
930,-2160.00
931,-1480.00
932,600.00
933,2080.00
934,1680.00
935,-320.00
936,-2000.00
937,-1800.00
938,40.00
939,1800.00
940,2000.00
941,240.00
942,-1640.00
943,-2040.00
944,-560.00
945,1440.00
946,2200.00
947,840.00
948,-1280.00
949,-2240.00
950,-1080.00
951,1080.00
952,2200.00
953,1320.00
954,-840.00
955,-2160.00
956,-1480.00
957,600.00
958,2080.00
959,1680.00
960,-320.00
961,-2000.00
962,-1800.00
963,0.00
964,1800.00
965,1960.00
966,200.00
967,-1640.00
968,-2080.00
969,-560.00
970,1480.00
971,2200.00
972,840.00
973,-1280.00
974,-2240.00
975,-1120.00
976,1080.00
977,2200.00
978,1320.00
979,-840.00
980,-2160.00
981,-1480.00
982,600.00
983,2080.00
984,1680.00
985,-320.00
986,-1960.00
987,-1800.00
988,0.00
989,1800.00
990,1960.00
991,240.00
992,-1640.00
993,-2080.00
994,-560.00
995,1480.00
996,2200.00
997,840.00
998,-1280.00
999,-2200.00
1000,-1120.00
1001,1080.00
1002,2200.00
1003,1320.00
1004,-840.00
1005,-2160.00
1006,-1480.00
1007,560.00
1008,2080.00
1009,1680.00
1010,-320.00
1011,-2000.00
1012,-1800.00
1013,0.00
1014,1800.00
1015,2000.00
1016,240.00
1017,-1640.00
1018,-2080.00
1019,-560.00
1020,1480.00
1021,2160.00
1022,880.00
1023,-1280.00
1024,-2200.00
1025,-1120.00
1026,1040.00
1027,2200.00
1028,1320.00
1029,-840.00
1030,-2160.00
1031,-1480.00
1032,560.00
1033,2080.00
1034,1680.00
1035,-320.00
1036,-1960.00
1037,-1800.00
1038,0.00
1039,1800.00
1040,2000.00
1041,280.00
1042,-1640.00
1043,-2080.00
1044,-560.00
1045,1440.00
1046,2200.00
1047,880.00
1048,-1280.00
1049,-2200.00
1050,-1120.00
1051,1080.00
1052,2200.00
1053,1320.00
1054,-840.00
1055,-2160.00
1056,-1480.00
1057,560.00
1058,2080.00
1059,1680.00
1060,-280.00
1061,-1920.00
1062,-1800.00
1063,0.00
1064,1800.00
1065,2000.00
1066,280.00
1067,-1640.00
1068,-2080.00
1069,-560.00
1070,1440.00
1071,2160.00
1072,880.00
1073,-1280.00
1074,-2200.00
1075,-1120.00
1076,1080.00
1077,2200.00
1078,1320.00
1079,-840.00
1080,-2160.00
1081,-1480.00
1082,560.00
1083,2080.00
1084,1760.00
1085,-280.00
1086,-2000.00
1087,-1800.00
1088,0.00
1089,1800.00
1090,2000.00
1091,280.00
1092,-1640.00
1093,-2080.00
1094,-560.00
1095,1480.00
1096,2160.00
1097,880.00
1098,-1280.00
1099,-2200.00
1100,-1120.00
1101,1040.00
1102,2200.00
1103,1360.00
1104,-840.00
1105,-2160.00
1106,-1480.00
1107,560.00
1108,2080.00
1109,1680.00
1110,-320.00
1111,-1880.00
1112,-1800.00
1113,0.00
1114,1840.00
1115,1960.00
1116,240.00
1117,-1600.00
1118,-2080.00
1119,-560.00
1120,1440.00
1121,2200.00
1122,880.00
1123,-1280.00
1124,-2200.00
1125,-1120.00
1126,1040.00
1127,2200.00
1128,1320.00
1129,-840.00
1130,-2160.00
1131,-1520.00
1132,560.00
1133,2080.00
1134,1680.00
1135,-280.00
1136,-1960.00
1137,-1800.00
1138,0.00
1139,1840.00
1140,1960.00
1141,240.00
1142,-1640.00
1143,-2080.00
1144,-560.00
1145,1440.00
1146,2200.00
1147,880.00
1148,-1280.00
1149,-2200.00
1150,-1120.00
1151,1080.00
1152,2200.00
1153,1320.00
1154,-840.00
1155,-2200.00
1156,-1480.00
1157,560.00
1158,2080.00
1159,1680.00
1160,-320.00
1161,-2000.00
1162,-1800.00
1163,0.00
1164,1800.00
1165,1960.00
1166,240.00
1167,-1640.00
1168,-2080.00
1169,-560.00
1170,1440.00
1171,2160.00
1172,840.00
1173,-1280.00
1174,-2200.00
1175,-1120.00
1176,1080.00
1177,2200.00
1178,1320.00
1179,-840.00
1180,-2160.00
1181,-1480.00
1182,560.00
1183,2080.00
1184,1680.00
1185,-320.00
1186,-1960.00
1187,-1800.00
1188,0.00
1189,1840.00
1190,1960.00
1191,200.00
1192,-1640.00
1193,-2080.00
1194,-560.00
1195,1440.00
1196,2160.00
1197,840.00
1198,-1280.00
1199,-2200.00
1200,2200.00
1201,1320.00
1202,-840.00
1203,-2160.00
1204,-1480.00
1205,560.00
1206,2080.00
1207,1920.00
1208,1520.00
1209,1400.00
1210,1160.00
1211,-200.00
1212,-1840.00
1213,-2040.00
1214,-240.00
1215,1680.00
1216,2080.00
1217,560.00
1218,-1440.00
1219,-2160.00
1220,-1760.00
1221,-1480.00
1222,-1280.00
1223,-800.00
1224,1160.00
1225,2240.00
1226,1800.00
1227,1480.00
1228,1320.00
1229,1040.00
1230,-680.00
1231,-2160.00
1232,-1880.00
1233,-1560.00
1234,-1360.00
1235,-1160.00
1236,200.00
1237,1920.00
1238,1960.00
1239,280.00
1240,-1640.00
1241,-2080.00
1242,-600.00
1243,1480.00
1244,2160.00
1245,840.00
1246,-1280.00
1247,-2200.00
1248,-1120.00
1249,1080.00
1250,2200.00
1251,1800.00
1252,1520.00
1253,1320.00
1254,1040.00
1255,-680.00
1256,-2160.00
1257,-1920.00
1258,-1600.00
1259,-1360.00
1260,-1160.00
1261,200.00
1262,1920.00
1263,2040.00
1264,1640.00
1265,1400.00
1266,1200.00
1267,320.00
1268,-1560.00
1269,-2240.00
1270,-1800.00
1271,-1480.00
1272,-1280.00
1273,-800.00
1274,1160.00
1275,2240.00
1276,1800.00
1277,1480.00
1278,1360.00
1279,1040.00
1280,-680.00
1281,-2160.00
1282,-1880.00
1283,-1560.00
1284,-1360.00
1285,-1160.00
1286,200.00
1287,1920.00
1288,2000.00
1289,240.00
1290,-1640.00
1291,-2080.00
1292,-560.00
1293,1480.00
1294,2160.00
1295,840.00
1296,-1280.00
1297,-2240.00
1298,-1120.00
1299,1080.00
1300,2200.00
1301,1800.00
1302,1520.00
1303,1360.00
1304,1040.00
1305,-680.00
1306,-2160.00
1307,-1720.00
1308,280.00
1309,1960.00
1310,1800.00
1311,-40.00
1312,-1800.00
1313,-2000.00
1314,-240.00
1315,1680.00
1316,2080.00
1317,560.00
1318,-1440.00
1319,-2160.00
1320,-880.00
1321,1280.00
1322,2200.00
1323,1080.00
1324,-1040.00
1325,-2200.00
1326,-1800.00
1327,-1560.00
1328,-1320.00
1329,-1000.00
1330,720.00
1331,2160.00
1332,1920.00
1333,1520.00
1334,1360.00
1335,1200.00
1336,-200.00
1337,-1880.00
1338,-2040.00
1339,-240.00
1340,1680.00
1341,2080.00
1342,560.00
1343,-1440.00
1344,-2160.00
1345,-1760.00
1346,-1440.00
1347,-1280.00
1348,-800.00
1349,1160.00
1350,2240.00
1351,1800.00
1352,1480.00
1353,1360.00
1354,1040.00
1355,-680.00
1356,-2160.00
1357,-1880.00
1358,-1600.00
1359,-1360.00
1360,-1160.00
1361,200.00
1362,1920.00
1363,2000.00
1364,280.00
1365,-1680.00
1366,-2080.00
1367,-560.00
1368,1480.00
1369,2160.00
1370,1680.00
1371,1480.00
1372,1240.00
1373,800.00
1374,-1160.00
1375,-2240.00
1376,-1840.00
1377,-1520.00
1378,-1320.00
1379,-1000.00
1380,720.00
1381,2160.00
1382,1920.00
1383,1520.00
1384,1360.00
1385,1200.00
1386,-160.00
1387,-1880.00
1388,-2040.00
1389,-280.00
1390,1680.00
1391,2080.00
1392,560.00
1393,-1440.00
1394,-2160.00
1395,-1760.00
1396,-1440.00
1397,-1280.00
1398,-800.00
1399,1160.00
1400,2240.00
1401,1320.00
1402,-840.00
1403,-2160.00
1404,-1480.00
1405,560.00
1406,2080.00
1407,1680.00
1408,-320.00
1409,-1960.00
1410,-1800.00
1411,0.00
1412,1800.00
1413,1960.00
1414,240.00
1415,-1640.00
1416,-2080.00
1417,-560.00
1418,1440.00
1419,2160.00
1420,840.00
1421,-1280.00
1422,-2200.00
1423,-1120.00
1424,1040.00
1425,2200.00
1426,1320.00
1427,-840.00
1428,-2160.00
1429,-1480.00
1430,560.00
1431,2080.00
1432,1680.00
1433,-280.00
1434,-2000.00
1435,-1800.00
1436,0.00
1437,1800.00
1438,2000.00
1439,240.00
1440,-1640.00
1441,-2080.00
1442,-560.00
1443,1440.00
1444,2160.00
1445,1760.00
1446,1480.00
1447,1280.00
1448,760.00
1449,-1120.00
1450,-2240.00
1451,-1840.00
1452,-1520.00
1453,-1320.00
1454,-1000.00
1455,720.00
1456,2120.00
1457,1920.00
1458,1520.00
1459,1360.00
1460,1200.00
1461,-200.00
1462,-1840.00
1463,-2080.00
1464,-1600.00
1465,-1400.00
1466,-1200.00
1467,-320.00
1468,1520.00
1469,2200.00
1470,880.00
1471,-1280.00
1472,-2200.00
1473,-1120.00
1474,1080.00
1475,2200.00
1476,1320.00
1477,-840.00
1478,-2160.00
1479,-1480.00
1480,560.00
1481,2080.00
1482,1680.00
1483,-320.00
1484,-1960.00
1485,-1840.00
1486,0.00
1487,1800.00
1488,2040.00
1489,1640.00
1490,1440.00
1491,1240.00
1492,320.00
1493,-1560.00
1494,-2240.00
1495,-1800.00
1496,-1480.00
1497,-1280.00
1498,-800.00
1499,1160.00
1500,2240.00
1501,1800.00
1502,1480.00
1503,1360.00
1504,1040.00
1505,-680.00
1506,-2160.00
1507,-1720.00
1508,280.00
1509,1960.00
1510,1800.00
1511,0.00
1512,-1800.00
1513,-2000.00
1514,-280.00
1515,1680.00
1516,2080.00
1517,560.00
1518,-1440.00
1519,-2160.00
1520,-920.00
1521,1280.00
1522,2200.00
1523,1120.00
1524,-1000.00
1525,-2200.00
1526,-1840.00
1527,-1560.00
1528,-1360.00
1529,-1000.00
1530,640.00
1531,2120.00
1532,1920.00
1533,1520.00
1534,1360.00
1535,1200.00
1536,-200.00
1537,-1880.00
1538,-2040.00
1539,-280.00
1540,1640.00
1541,2080.00
1542,520.00
1543,-1480.00
1544,-2160.00
1545,-920.00
1546,1280.00
1547,2200.00
1548,1080.00
1549,-1000.00
1550,-2200.00
1551,-1360.00
1552,800.00
1553,2120.00
1554,1480.00
1555,-560.00
1556,-2080.00
1557,-1720.00
1558,280.00
1559,1920.00
1560,1800.00
1561,-40.00
1562,-1800.00
1563,-2040.00
1564,-1600.00
1565,-1400.00
1566,-1200.00
1567,-280.00
1568,1520.00
1569,2200.00
1570,880.00
1571,-1280.00
1572,-2200.00
1573,-1120.00
1574,1080.00
1575,2200.00
1576,1800.00
1577,1480.00
1578,1320.00
1579,1040.00
1580,-680.00
1581,-2160.00
1582,-1720.00
1583,320.00
1584,1960.00
1585,1800.00
1586,-40.00
1587,-1800.00
1588,-2000.00
1589,-240.00
1590,1680.00
1591,2080.00
1592,560.00
1593,-1440.00
1594,-2160.00
1595,-880.00
1596,1320.00
1597,2200.00
1598,1080.00
1599,-1000.00
1600,-2200.00
1601,-1320.00
1602,840.00
1603,2120.00
1604,1480.00
1605,-560.00
1606,-2080.00
1607,-1720.00
1608,280.00
1609,1960.00
1610,1800.00
1611,0.00
1612,-1800.00
1613,-2000.00
1614,-280.00
1615,1680.00
1616,2080.00
1617,560.00
1618,-1480.00
1619,-2160.00
1620,-880.00
1621,1280.00
1622,2200.00
1623,1080.00
1624,-1040.00
1625,-2200.00
1626,-1320.00
1627,800.00
1628,2160.00
1629,1480.00
1630,-560.00
1631,-2080.00
1632,-1680.00
1633,320.00
1634,1960.00
1635,1800.00
1636,0.00
1637,-1800.00
1638,-2000.00
1639,-280.00
1640,1680.00
1641,2080.00
1642,520.00
1643,-1440.00
1644,-2160.00
1645,-880.00
1646,1280.00
1647,2200.00
1648,1080.00
1649,-1040.00
1650,-2200.00
1651,-1320.00
1652,800.00
1653,2120.00
1654,1480.00
1655,-560.00
1656,-2080.00
1657,-1880.00
1658,-1600.00
1659,-1400.00
1660,-1160.00
1661,200.00
1662,1920.00
1663,2040.00
1664,1640.00
1665,1440.00
1666,1200.00
1667,320.00
1668,-1560.00
1669,-2240.00
1670,-920.00
1671,1320.00
1672,2200.00
1673,1080.00
1674,-1000.00
1675,-2200.00
1676,-1320.00
1677,800.00
1678,2120.00
1679,1480.00
1680,-560.00
1681,-2080.00
1682,-1720.00
1683,320.00
1684,1920.00
1685,1800.00
1686,-40.00
1687,-1800.00
1688,-2000.00
1689,-240.00
1690,1680.00
1691,2080.00
1692,520.00
1693,-1440.00
1694,-2160.00
1695,-880.00
1696,1320.00
1697,2200.00
1698,1080.00
1699,-1000.00
1700,-2200.00
1701,-1320.00
1702,800.00
1703,2160.00
1704,1480.00
1705,-560.00
1706,-2080.00
1707,-1720.00
1708,320.00
1709,1960.00
1710,1800.00
1711,0.00
1712,-1800.00
1713,-2000.00
1714,-280.00
1715,1680.00
1716,2080.00
1717,520.00
1718,-1440.00
1719,-2160.00
1720,-880.00
1721,1320.00
1722,2200.00
1723,1080.00
1724,-1000.00
1725,-2200.00
1726,-1840.00
1727,-1520.00
1728,-1320.00
1729,-1000.00
1730,720.00
1731,2120.00
1732,1920.00
1733,1520.00
1734,1360.00
1735,1200.00
1736,-200.00
1737,-1880.00
1738,-2000.00
1739,-240.00
1740,1680.00
1741,2080.00
1742,560.00
1743,-1440.00
1744,-2160.00
1745,-880.00
1746,1320.00
1747,2200.00
1748,1080.00
1749,-1000.00
1750,-2200.00
1751,-1360.00
1752,840.00
1753,2160.00
1754,1480.00
1755,-560.00
1756,-2080.00
1757,-1680.00
1758,320.00
1759,1960.00
1760,1800.00
1761,0.00
1762,-1800.00
1763,-2000.00
1764,-280.00
1765,1680.00
1766,2080.00
1767,520.00
1768,-1440.00
1769,-2160.00
1770,-880.00
1771,1280.00
1772,2200.00
1773,1080.00
1774,-1000.00
1775,-2200.00
1776,-1360.00
1777,800.00
1778,2120.00
1779,1480.00
1780,-560.00
1781,-2080.00
1782,-1680.00
1783,280.00
1784,1960.00
1785,1800.00
1786,-40.00
1787,-1800.00
1788,-2000.00
1789,-240.00
1790,1680.00
1791,2080.00
1792,560.00
1793,-1440.00
1794,-2160.00
1795,-880.00
1796,1320.00
1797,2200.00
1798,1080.00
1799,-1000.00
1800,800.00
1801,2120.00
1802,1480.00
1803,-560.00
1804,-2080.00
1805,-1720.00
1806,320.00
1807,1960.00
1808,1800.00
1809,0.00
1810,-1800.00
1811,-2040.00
1812,-1640.00
1813,-1400.00
1814,-1200.00
1815,-320.00
1816,1520.00
1817,2200.00
1818,880.00
1819,-1280.00
1820,-2200.00
1821,-1120.00
1822,1080.00
1823,2200.00
1824,1800.00
1825,1520.00
1826,1320.00
1827,1040.00
1828,-680.00
1829,-2160.00
1830,-1720.00
1831,320.00
1832,1960.00
1833,1800.00
1834,0.00
1835,-1800.00
1836,-2000.00
1837,-320.00
1838,1640.00
1839,2080.00
1840,560.00
1841,-1440.00
1842,-2160.00
1843,-880.00
1844,1280.00
1845,2200.00
1846,1120.00
1847,-1000.00
1848,-2200.00
1849,-1320.00
1850,800.00
1851,2120.00
1852,1520.00
1853,-560.00
1854,-2080.00
1855,-1720.00
1856,280.00
1857,1960.00
1858,1800.00
1859,0.00
1860,-1800.00
1861,-2000.00
1862,-280.00
1863,1640.00
1864,2080.00
1865,560.00
1866,-1440.00
1867,-2160.00
1868,-1760.00
1869,-1480.00
1870,-1280.00
1871,-840.00
1872,1160.00
1873,2240.00
1874,1800.00
1875,1480.00
1876,1360.00
1877,1040.00
1878,-680.00
1879,-2160.00
1880,-1680.00
1881,320.00
1882,1960.00
1883,1800.00
1884,0.00
1885,-1800.00
1886,-2000.00
1887,-280.00
1888,1640.00
1889,2080.00
1890,560.00
1891,-1440.00
1892,-2160.00
1893,-880.00
1894,1280.00
1895,2200.00
1896,1080.00
1897,-1000.00
1898,-2200.00
1899,-1320.00
1900,800.00
1901,2120.00
1902,1480.00
1903,-560.00
1904,-2080.00
1905,-1720.00
1906,320.00
1907,1960.00
1908,1800.00
1909,-40.00
1910,-1800.00
1911,-2000.00
1912,-240.00
1913,1680.00
1914,2080.00
1915,560.00
1916,-1480.00
1917,-2160.00
1918,-880.00
1919,1280.00
1920,2200.00
1921,1080.00
1922,-1000.00
1923,-2200.00
1924,-1320.00
1925,800.00
1926,2120.00
1927,1480.00
1928,-560.00
1929,-2080.00
1930,-1720.00
1931,280.00
1932,1960.00
1933,1800.00
1934,-80.00
1935,-1800.00
1936,-2000.00
1937,-240.00
1938,1680.00
1939,2080.00
1940,560.00
1941,-1440.00
1942,-2160.00
1943,-880.00
1944,1320.00
1945,2200.00
1946,1080.00
1947,-1000.00
1948,-2200.00
1949,-1320.00
1950,800.00
1951,2120.00
1952,1480.00
1953,-560.00
1954,-2080.00
1955,-1880.00
1956,-1560.00
1957,-1400.00
1958,-1160.00
1959,200.00
1960,1920.00
1961,2040.00
1962,1640.00
1963,1440.00
1964,1200.00
1965,320.00
1966,-1560.00
1967,-2200.00
1968,-920.00
1969,1320.00
1970,2200.00
1971,1080.00
1972,-1000.00
1973,-2200.00
1974,-1320.00
1975,800.00
1976,2160.00
1977,1480.00
1978,-560.00
1979,-2080.00
1980,-1720.00
1981,320.00
1982,1960.00
1983,1800.00
1984,0.00
1985,-1800.00
1986,-2000.00
1987,-280.00
1988,1680.00
1989,2080.00
1990,560.00
1991,-1440.00
1992,-2160.00
1993,-880.00
1994,1320.00
1995,2200.00
1996,1080.00
1997,-1040.00
1998,-2200.00
1999,-1320.00
2000,800.00
2001,2120.00
2002,1480.00
2003,-560.00
2004,-2080.00
2005,-1680.00
2006,320.00
2007,1960.00
2008,1800.00
2009,0.00
2010,-1800.00
2011,-2000.00
2012,-280.00
2013,1680.00
2014,2080.00
2015,560.00
2016,-1440.00
2017,-2160.00
2018,-1760.00
2019,-1440.00
2020,-1280.00
2021,-800.00
2022,1160.00
2023,2240.00
2024,1800.00
2025,1520.00
2026,1360.00
2027,1040.00
2028,-680.00
2029,-2160.00
2030,-1840.00
2031,-1600.00
2032,-1360.00
2033,-1160.00
2034,200.00
2035,1960.00
2036,2040.00
2037,280.00
2038,-1640.00
2039,-2080.00
2040,-560.00
2041,1480.00
2042,2160.00
2043,840.00
2044,-1280.00
2045,-2200.00
2046,-1080.00
2047,1080.00
2048,2200.00
2049,1800.00
2050,1520.00
2051,1360.00
2052,1040.00
2053,-680.00
2054,-2160.00
2055,-1880.00
2056,-1560.00
2057,-1360.00
2058,-1120.00
2059,200.00
2060,1920.00
2061,2040.00
2062,1640.00
2063,1440.00
2064,1200.00
2065,320.00
2066,-1560.00
2067,-2240.00
2068,-1760.00
2069,-1480.00
2070,-1280.00
2071,-760.00
2072,1160.00
2073,2240.00
2074,1800.00
2075,1520.00
2076,1360.00
2077,1040.00
2078,-680.00
2079,-2160.00
2080,-1880.00
2081,-1560.00
2082,-1360.00
2083,-1120.00
2084,200.00
2085,1960.00
2086,2000.00
2087,280.00
2088,-1640.00
2089,-2080.00
2090,-560.00
2091,1480.00
2092,2200.00
2093,840.00
2094,-1280.00
2095,-2200.00
2096,-1080.00
2097,1080.00
2098,2200.00
2099,1800.00
2100,1520.00
2101,1320.00
2102,1040.00
2103,-720.00
2104,-2160.00
2105,-1720.00
2106,320.00
2107,1960.00
2108,1800.00
2109,0.00
2110,-1800.00
2111,-2000.00
2112,-280.00
2113,1680.00
2114,2080.00
2115,560.00
2116,-1440.00
2117,-2160.00
2118,-880.00
2119,1320.00
2120,2200.00
2121,1080.00
2122,-1040.00
2123,-2200.00
2124,-1840.00
2125,-1560.00
2126,-1320.00
2127,-1000.00
2128,720.00
2129,2160.00
2130,1920.00
2131,1520.00
2132,1360.00
2133,1200.00
2134,-160.00
2135,-1840.00
2136,-2000.00
2137,-240.00
2138,1680.00
2139,2080.00
2140,560.00
2141,-1440.00
2142,-2160.00
2143,-1760.00
2144,-1440.00
2145,-1280.00
2146,-760.00
2147,1160.00
2148,2240.00
2149,1800.00
2150,1480.00
2151,1360.00
2152,1040.00
2153,-680.00
2154,-2160.00
2155,-1880.00
2156,-1560.00
2157,-1360.00
2158,-1120.00
2159,200.00
2160,1960.00
2161,2000.00
2162,280.00
2163,-1640.00
2164,-2080.00
2165,-560.00
2166,1480.00
2167,2160.00
2168,1760.00
2169,1480.00
2170,1240.00
2171,760.00
2172,-1160.00
2173,-2240.00
2174,-1840.00
2175,-1520.00
2176,-1320.00
2177,-1000.00
2178,720.00
2179,2160.00
2180,1920.00
2181,1520.00
2182,1360.00
2183,1200.00
2184,-160.00
2185,-1840.00
2186,-2040.00
2187,-280.00
2188,1680.00
2189,2080.00
2190,560.00
2191,-1440.00
2192,-2160.00
2193,-1760.00
2194,-1480.00
2195,-1280.00
2196,-800.00
2197,1160.00
2198,2240.00
2199,1320.00
2200,-840.00
2201,-2160.00
2202,-1480.00
2203,560.00
2204,2080.00
2205,1680.00
2206,-280.00
2207,-1960.00
2208,-1800.00
2209,0.00
2210,1840.00
2211,1960.00
2212,240.00
2213,-1640.00
2214,-2080.00
2215,-560.00
2216,1440.00
2217,2160.00
2218,840.00
2219,-1280.00
2220,-2200.00
2221,-1120.00
2222,1080.00
2223,2200.00
2224,1320.00
2225,-840.00
2226,-2160.00
2227,-1480.00
2228,560.00
2229,2080.00
2230,1680.00
2231,-280.00
2232,-1920.00
2233,-1800.00
2234,0.00
2235,1800.00
2236,1960.00
2237,240.00
2238,-1640.00
2239,-2080.00
2240,-560.00
2241,1440.00
2242,2200.00
2243,1760.00
2244,1480.00
2245,1240.00
2246,760.00
2247,-1120.00
2248,-2240.00
2249,-1840.00
2250,-1520.00
2251,-1320.00
2252,-1000.00
2253,720.00
2254,2160.00
2255,1920.00
2256,1520.00
2257,1360.00
2258,1200.00
2259,-120.00
2260,-1840.00
2261,-2080.00
2262,-1600.00
2263,-1400.00
2264,-1200.00
2265,-320.00
2266,1520.00
2267,2200.00
2268,880.00
2269,-1280.00
2270,-2200.00
2271,-1120.00
2272,1080.00
2273,2200.00
2274,1320.00
2275,-840.00
2276,-2160.00
2277,-1480.00
2278,560.00
2279,2080.00
2280,1680.00
2281,-280.00
2282,-1960.00
2283,-1800.00
2284,0.00
2285,1800.00
2286,2040.00
2287,1640.00
2288,1440.00
2289,1240.00
2290,320.00
2291,-1560.00
2292,-2240.00
2293,-1760.00
2294,-1480.00
2295,-1280.00
2296,-800.00
2297,1160.00
2298,2240.00
2299,1800.00
2300,1480.00
2301,1360.00
2302,1040.00
2303,-680.00
2304,-2160.00
2305,-1720.00
2306,320.00
2307,1960.00
2308,1800.00
2309,0.00
2310,-1800.00
2311,-2000.00
2312,-280.00
2313,1680.00
2314,2080.00
2315,560.00
2316,-1440.00
2317,-2160.00
2318,-880.00
2319,1320.00
2320,2200.00
2321,1080.00
2322,-1000.00
2323,-2200.00
2324,-1320.00
2325,880.00
2326,2120.00
2327,1480.00
2328,-560.00
2329,-2080.00
2330,-1680.00
2331,320.00
2332,1960.00
2333,1800.00
2334,0.00
2335,-1800.00
2336,-2000.00
2337,-280.00
2338,1680.00
2339,2080.00
2340,560.00
2341,-1440.00
2342,-2160.00
2343,-1760.00
2344,-1440.00
2345,-1280.00
2346,-800.00
2347,1160.00
2348,2240.00
2349,1320.00
2350,-840.00
2351,-2160.00
2352,-1480.00
2353,560.00
2354,2080.00
2355,1920.00
2356,1520.00
2357,1360.00
2358,1200.00
2359,-200.00
2360,-1840.00
2361,-2000.00
2362,-240.00
2363,1680.00
2364,2080.00
2365,560.00
2366,-1440.00
2367,-2160.00
2368,-880.00
2369,1320.00
2370,2200.00
2371,1080.00
2372,-1040.00
2373,-2200.00
2374,-1840.00
2375,-1560.00
2376,-1320.00
2377,-1000.00
2378,720.00
2379,2160.00
2380,1920.00
2381,1520.00
2382,1360.00
2383,1200.00
2384,-160.00
2385,-1840.00
2386,-2040.00
2387,-1640.00
2388,-1400.00
2389,-1200.00
2390,-320.00
2391,1520.00
2392,2200.00
2393,1760.00
2394,1480.00
2395,1280.00
2396,760.00
2397,-1120.00
2398,-2240.00
2399,-1840.00
2400,-1000.00
2401,760.00
2402,2160.00
2403,1920.00
2404,1520.00
2405,1360.00
2406,1200.00
2407,-200.00
2408,-1880.00
2409,-2080.00
2410,-1600.00
2411,-1400.00
2412,-1200.00
2413,-320.00
2414,1520.00
2415,2200.00
2416,1760.00
2417,1480.00
2418,1280.00
2419,760.00
2420,-1160.00
2421,-2240.00
2422,-1360.00
2423,800.00
2424,2200.00
2425,1480.00
2426,-560.00
2427,-2080.00
2428,-1720.00
2429,320.00
2430,1960.00
2431,1800.00
2432,-40.00
2433,-1800.00
2434,-2000.00
2435,-240.00
2436,1680.00
2437,2080.00
2438,560.00
2439,-1440.00
2440,-2160.00
2441,-880.00
2442,1320.00
2443,2200.00
2444,1080.00
2445,-1040.00
2446,-2200.00
2447,-1320.00
2448,800.00
2449,2160.00
2450,1480.00
2451,-560.00
2452,-2080.00
2453,-1680.00
2454,320.00
2455,1960.00
2456,1800.00
2457,0.00
2458,-1800.00
2459,-2000.00
2460,-280.00
2461,1680.00
2462,2080.00
2463,560.00
2464,-1440.00
2465,-2160.00
2466,-1760.00
2467,-1480.00
2468,-1280.00
2469,-760.00
2470,1160.00
2471,2240.00
2472,1800.00
2473,1520.00
2474,1320.00
2475,1040.00
2476,-680.00
2477,-2160.00
2478,-1680.00
2479,320.00
2480,1960.00
2481,1800.00
2482,0.00
2483,-1800.00
2484,-2000.00
2485,-280.00
2486,1680.00
2487,2080.00
2488,560.00
2489,-1440.00
2490,-2160.00
2491,-1760.00
2492,-1440.00
2493,-1280.00
2494,-800.00
2495,1160.00
2496,2240.00
2497,1320.00
2498,-840.00
2499,-2160.00
2500,-1480.00
2501,600.00
2502,2080.00
2503,1920.00
2504,1560.00
2505,1360.00
2506,1200.00
2507,-200.00
2508,-1840.00
2509,-2040.00
2510,-240.00
2511,1680.00
2512,2080.00
2513,560.00
2514,-1440.00
2515,-2160.00
2516,-880.00
2517,1320.00
2518,2200.00
2519,1080.00
2520,-1040.00
2521,-2200.00
2522,-1320.00
2523,800.00
2524,2120.00
2525,1520.00
2526,-560.00
2527,-2080.00
2528,-1680.00
2529,320.00
2530,1960.00
2531,1800.00
2532,0.00
2533,-1800.00
2534,-2000.00
2535,-280.00
2536,1680.00
2537,2080.00
2538,560.00
2539,-1440.00
2540,-2160.00
2541,-880.00
2542,1320.00
2543,2200.00
2544,1080.00
2545,-1040.00
2546,-2200.00
2547,-1320.00
2548,800.00
2549,2120.00
2550,1480.00
2551,-560.00
2552,-2080.00
2553,-1680.00
2554,320.00
2555,1960.00
2556,1800.00
2557,0.00
2558,-1800.00
2559,-2000.00
2560,-280.00
2561,1640.00
2562,2080.00
2563,560.00
2564,-1440.00
2565,-2160.00
2566,-920.00
2567,1320.00
2568,2200.00
2569,1080.00
2570,-1000.00
2571,-2200.00
2572,-1320.00
2573,800.00
2574,2120.00
2575,1480.00
2576,-560.00
2577,-2080.00
2578,-1720.00
2579,320.00
2580,1960.00
2581,1800.00
2582,0.00
2583,-1800.00
2584,-2000.00
2585,-320.00
2586,1680.00
2587,2080.00
2588,560.00
2589,-1440.00
2590,-2160.00
2591,-880.00
2592,1320.00
2593,2200.00
2594,1080.00
2595,-1000.00
2596,-2200.00
2597,-1320.00
2598,800.00
2599,2160.00
2600,1520.00
2601,-560.00
2602,-2080.00
2603,-1680.00
2604,280.00
2605,1960.00
2606,1800.00
2607,0.00
2608,-1800.00
2609,-2000.00
2610,-280.00
2611,1640.00
2612,2080.00
2613,560.00
2614,-1440.00
2615,-2160.00
2616,-920.00
2617,1280.00
2618,2200.00
2619,1080.00
2620,-1000.00
2621,-2200.00
2622,-1320.00
2623,800.00
2624,2120.00
2625,1480.00
2626,-560.00
2627,-2080.00
2628,-1720.00
2629,320.00
2630,1960.00
2631,1800.00
2632,0.00
2633,-1800.00
2634,-2000.00
2635,-280.00
2636,1640.00
2637,2080.00
2638,560.00
2639,-1440.00
2640,-2160.00
2641,-880.00
2642,1280.00
2643,2200.00
2644,1080.00
2645,-1000.00
2646,-2200.00
2647,-1320.00
2648,800.00
2649,2120.00
2650,1480.00
2651,-560.00
2652,-2080.00
2653,-1720.00
2654,320.00
2655,1960.00
2656,1800.00
2657,0.00
2658,-1800.00
2659,-2000.00
2660,-280.00
2661,1640.00
2662,2080.00
2663,560.00
2664,-1440.00
2665,-2160.00
2666,-920.00
2667,1280.00
2668,2200.00
2669,1080.00
2670,-1000.00
2671,-2200.00
2672,-1320.00
2673,800.00
2674,2120.00
2675,1520.00
2676,-560.00
2677,-2080.00
2678,-1720.00
2679,320.00
2680,1960.00
2681,1800.00
2682,0.00
2683,-1800.00
2684,-2000.00
2685,-280.00
2686,1640.00
2687,2080.00
2688,560.00
2689,-1440.00
2690,-2160.00
2691,-880.00
2692,1280.00
2693,2200.00
2694,1080.00
2695,-1040.00
2696,-2200.00
2697,-1320.00
2698,800.00
2699,2120.00
2700,1480.00
2701,-560.00
2702,-2080.00
2703,-1680.00
2704,320.00
2705,1960.00
2706,1800.00
2707,0.00
2708,-1800.00
2709,-2000.00
2710,-320.00
2711,1680.00
2712,2080.00
2713,560.00
2714,-1440.00
2715,-2160.00
2716,-880.00
2717,1320.00
2718,2200.00
2719,1080.00
2720,-1000.00
2721,-2200.00
2722,-1320.00
2723,800.00
2724,2120.00
2725,1480.00
2726,-560.00
2727,-2080.00
2728,-1680.00
2729,280.00
2730,1920.00
2731,1800.00
2732,0.00
2733,-1800.00
2734,-2000.00
2735,-280.00
2736,1640.00
2737,2080.00
2738,560.00
2739,-1440.00
2740,-2160.00
2741,-880.00
2742,1320.00
2743,2200.00
2744,1080.00
2745,-1040.00
2746,-2200.00
2747,-1320.00
2748,800.00
2749,2120.00
2750,1520.00
2751,-560.00
2752,-2080.00
2753,-1720.00
2754,320.00
2755,1960.00
2756,1800.00
2757,0.00
2758,-1800.00
2759,-2000.00
2760,-280.00
2761,1640.00
2762,2080.00
2763,520.00
2764,-1440.00
2765,-2160.00
2766,-880.00
2767,1280.00
2768,2200.00
2769,1080.00
2770,-1040.00
2771,-2200.00
2772,-1320.00
2773,800.00
2774,2200.00
2775,1480.00
2776,-600.00
2777,-2080.00
2778,-1640.00
2779,320.00
2780,1960.00
2781,1800.00
2782,0.00
2783,-1800.00
2784,-2000.00
2785,-280.00
2786,1680.00
2787,2080.00
2788,520.00
2789,-1440.00
2790,-2160.00
2791,-880.00
2792,1320.00
2793,2200.00
2794,1080.00
2795,-1080.00
2796,-2200.00
2797,-1320.00
2798,840.00
2799,2120.00
2800,1520.00
2801,-560.00
2802,-2080.00
2803,-1680.00
2804,320.00
2805,1960.00
2806,1800.00
2807,-40.00
2808,-1800.00
2809,-2000.00
2810,-240.00
2811,1680.00
2812,2080.00
2813,520.00
2814,-1480.00
2815,-2160.00
2816,-880.00
2817,1320.00
2818,2200.00
2819,1080.00
2820,-1040.00
2821,-2200.00
2822,-1320.00
2823,800.00
2824,2160.00
2825,1480.00
2826,-560.00
2827,-2080.00
2828,-1680.00
2829,320.00
2830,1960.00
2831,1800.00
2832,-40.00
2833,-1800.00
2834,-2000.00
2835,-240.00
2836,1680.00
2837,2040.00
2838,520.00
2839,-1480.00
2840,-2160.00
2841,-1760.00
2842,-1480.00
2843,-1280.00
2844,-760.00
2845,1160.00
2846,2240.00
2847,1320.00
2848,-840.00
2849,-2160.00
2850,-1480.00
2851,600.00
2852,2080.00
2853,1920.00
2854,1560.00
2855,1360.00
2856,1200.00
2857,-200.00
2858,-1880.00
2859,-2000.00
2860,-240.00
2861,1680.00
2862,2080.00
2863,560.00
2864,-1440.00
2865,-2160.00
2866,-880.00
2867,1320.00
2868,2200.00
2869,1080.00
2870,-1040.00
2871,-2200.00
2872,-1840.00
2873,-1560.00
2874,-1320.00
2875,-1000.00
2876,720.00
2877,2120.00
2878,1920.00
2879,1520.00
2880,1360.00
2881,1200.00
2882,-160.00
2883,-1840.00
2884,-2040.00
2885,-1640.00
2886,-1400.00
2887,-1200.00
2888,-280.00
2889,1520.00
2890,2200.00
2891,1760.00
2892,1480.00
2893,1320.00
2894,760.00
2895,-1160.00
2896,-2240.00
2897,-1840.00
2898,-1520.00
2899,-1320.00
2900,-1000.00
2901,720.00
2902,2120.00
2903,1920.00
2904,1520.00
2905,1360.00
2906,1200.00
2907,-160.00
2908,-1840.00
2909,-2040.00
2910,-1640.00
2911,-1400.00
2912,-1200.00
2913,-320.00
2914,1520.00
2915,2200.00
2916,1760.00
2917,1480.00
2918,1280.00
2919,760.00
2920,-1160.00
2921,-2240.00
2922,-1360.00
2923,800.00
2924,2160.00
2925,1520.00
2926,-560.00
2927,-2080.00
2928,-1720.00
2929,280.00
2930,1960.00
2931,1800.00
2932,0.00
2933,-1800.00
2934,-2000.00
2935,-280.00
2936,1680.00
2937,2080.00
2938,560.00
2939,-1440.00
2940,-2160.00
2941,-880.00
2942,1320.00
2943,2200.00
2944,1080.00
2945,-1040.00
2946,-2200.00
2947,-1320.00
2948,800.00
2949,2120.00
2950,1480.00
2951,-560.00
2952,-2080.00
2953,-1880.00
2954,-1600.00
2955,-1400.00
2956,-1160.00
2957,200.00
2958,1920.00
2959,2000.00
2960,280.00
2961,-1640.00
2962,-2080.00
2963,-560.00
2964,1440.00
2965,2160.00
2966,880.00
2967,-1280.00
2968,-2200.00
2969,-1120.00
2970,1040.00
2971,2200.00
2972,1800.00
2973,1520.00
2974,1320.00
2975,1040.00
2976,-680.00
2977,-2160.00
2978,-1960.00
2979,-1600.00
2980,-1360.00
2981,-1160.00
2982,160.00
2983,1920.00
2984,2040.00
2985,1640.00
2986,1440.00
2987,1200.00
2988,320.00
2989,-1560.00
2990,-2240.00
2991,-1760.00
2992,-1480.00
2993,-1280.00
2994,-800.00
2995,1160.00
2996,2240.00
2997,1320.00
2998,-840.00
2999,-2160.00
3000,2080.00
3001,1920.00
3002,1560.00
3003,1360.00
3004,1200.00
3005,-160.00
3006,-1840.00
3007,-2000.00
3008,-280.00
3009,1680.00
3010,2120.00
3011,560.00
3012,-1440.00
3013,-2160.00
3014,-880.00
3015,1320.00
3016,2200.00
3017,1080.00
3018,-1000.00
3019,-2200.00
3020,-1320.00
3021,800.00
3022,2120.00
3023,1480.00
3024,-560.00
3025,-2080.00
3026,-1680.00
3027,320.00
3028,1960.00
3029,1800.00
3030,0.00
3031,-1800.00
3032,-2000.00
3033,-280.00
3034,1680.00
3035,2080.00
3036,560.00
3037,-1440.00
3038,-2160.00
3039,-880.00
3040,1320.00
3041,2200.00
3042,1080.00
3043,-1040.00
3044,-2200.00
3045,-1320.00
3046,800.00
3047,2160.00
3048,1480.00
3049,-560.00
3050,-2080.00
3051,-1720.00
3052,280.00
3053,1960.00
3054,1800.00
3055,0.00
3056,-1800.00
3057,-2000.00
3058,-280.00
3059,1640.00
3060,2080.00
3061,560.00
3062,-1480.00
3063,-2160.00
3064,-880.00
3065,1240.00
3066,2200.00
3067,1080.00
3068,-1040.00
3069,-2200.00
3070,-1320.00
3071,800.00
3072,2120.00
3073,1480.00
3074,-560.00
3075,-2080.00
3076,-1680.00
3077,320.00
3078,1960.00
3079,1800.00
3080,0.00
3081,-1800.00
3082,-2000.00
3083,-280.00
3084,1680.00
3085,2080.00
3086,560.00
3087,-1440.00
3088,-2160.00
3089,-880.00
3090,1320.00
3091,2200.00
3092,1080.00
3093,-1000.00
3094,-2200.00
3095,-1320.00
3096,800.00
3097,2120.00
3098,1480.00
3099,-560.00
3100,-2080.00
3101,-1720.00
3102,320.00
3103,1960.00
3104,1800.00
3105,0.00
3106,-1800.00
3107,-2000.00
3108,-280.00
3109,1680.00
3110,2080.00
3111,520.00
3112,-1480.00
3113,-2160.00
3114,-880.00
3115,1320.00
3116,2200.00
3117,1080.00
3118,-1040.00
3119,-2200.00
3120,-1280.00
3121,800.00
3122,2160.00
3123,1480.00
3124,-560.00
3125,-2080.00
3126,-1680.00
3127,320.00
3128,1960.00
3129,1800.00
3130,0.00
3131,-1800.00
3132,-2000.00
3133,-280.00
3134,1680.00
3135,2080.00
3136,520.00
3137,-1440.00
3138,-2160.00
3139,-880.00
3140,1320.00
3141,2200.00
3142,1080.00
3143,-1040.00
3144,-2200.00
3145,-1320.00
3146,800.00
3147,2120.00
3148,1480.00
3149,-560.00
3150,-2080.00
3151,-1640.00
3152,320.00
3153,1960.00
3154,1800.00
3155,0.00
3156,-1800.00
3157,-2000.00
3158,-280.00
3159,1680.00
3160,2080.00
3161,560.00
3162,-1480.00
3163,-2160.00
3164,-920.00
3165,1320.00
3166,2200.00
3167,1080.00
3168,-1040.00
3169,-2200.00
3170,-1320.00
3171,800.00
3172,2160.00
3173,1480.00
3174,-560.00
3175,-2080.00
3176,-1680.00
3177,320.00
3178,1960.00
3179,1800.00
3180,0.00
3181,-1800.00
3182,-2000.00
3183,-280.00
3184,1680.00
3185,2080.00
3186,560.00
3187,-1440.00
3188,-2160.00
3189,-880.00
3190,1320.00
3191,2200.00
3192,1080.00
3193,-1040.00
3194,-2200.00
3195,-1320.00
3196,800.00
3197,2160.00
3198,1480.00
3199,-560.00
3200,-2080.00
3201,-1680.00
3202,320.00
3203,1960.00
3204,1800.00
3205,-40.00
3206,-1800.00
3207,-2000.00
3208,-240.00
3209,1680.00
3210,2080.00
3211,560.00
3212,-1440.00
3213,-2160.00
3214,-880.00
3215,1320.00
3216,2200.00
3217,1080.00
3218,-1040.00
3219,-2200.00
3220,-1320.00
3221,800.00
3222,2120.00
3223,1520.00
3224,-560.00
3225,-2080.00
3226,-1640.00
3227,320.00
3228,1960.00
3229,1800.00
3230,-40.00
3231,-1800.00
3232,-2000.00
3233,-240.00
3234,1680.00
3235,2040.00
3236,560.00
3237,-1440.00
3238,-2160.00
3239,-880.00
3240,1320.00
3241,2200.00
3242,1080.00
3243,-1040.00
3244,-2200.00
3245,-1320.00
3246,800.00
3247,2120.00
3248,1480.00
3249,-560.00
3250,-2080.00
3251,-1680.00
3252,320.00
3253,1960.00
3254,1800.00
3255,-40.00
3256,-1800.00
3257,-2000.00
3258,-240.00
3259,1680.00
3260,2080.00
3261,560.00
3262,-1440.00
3263,-2160.00
3264,-880.00
3265,1280.00
3266,2200.00
3267,1080.00
3268,-1040.00
3269,-2200.00
3270,-1320.00
3271,800.00
3272,2120.00
3273,1480.00
3274,-560.00
3275,-2080.00
3276,-1680.00
3277,320.00
3278,1960.00
3279,1800.00
3280,-40.00
3281,-1800.00
3282,-2000.00
3283,-240.00
3284,1680.00
3285,2080.00
3286,560.00
3287,-1440.00
3288,-2160.00
3289,-880.00
3290,1280.00
3291,2200.00
3292,1080.00
3293,-1040.00
3294,-2200.00
3295,-1320.00
3296,800.00
3297,2160.00
3298,1480.00
3299,-560.00
3300,-2080.00
3301,-1680.00
3302,320.00
3303,1960.00
3304,1800.00
3305,0.00
3306,-1800.00
3307,-2000.00
3308,-280.00
3309,1680.00
3310,2080.00
3311,560.00
3312,-1440.00
3313,-2160.00
3314,-920.00
3315,1320.00
3316,2200.00
3317,1080.00
3318,-1040.00
3319,-2200.00
3320,-1320.00
3321,800.00
3322,2120.00
3323,1480.00
3324,-560.00
3325,-2080.00
3326,-1680.00
3327,320.00
3328,1960.00
3329,1800.00
3330,0.00
3331,-1800.00
3332,-2000.00
3333,-280.00
3334,1640.00
3335,2080.00
3336,560.00
3337,-1440.00
3338,-2160.00
3339,-880.00
3340,1320.00
3341,2200.00
3342,1080.00
3343,-1000.00
3344,-2200.00
3345,-1320.00
3346,800.00
3347,2120.00
3348,1520.00
3349,-560.00
3350,-2080.00
3351,-1680.00
3352,320.00
3353,1960.00
3354,1800.00
3355,0.00
3356,-1800.00
3357,-2000.00
3358,-280.00
3359,1640.00
3360,2080.00
3361,560.00
3362,-1440.00
3363,-2160.00
3364,-880.00
3365,1280.00
3366,2200.00
3367,1080.00
3368,-1000.00
3369,-2200.00
3370,-1320.00
3371,800.00
3372,2160.00
3373,1520.00
3374,-560.00
3375,-2080.00
3376,-1680.00
3377,320.00
3378,1960.00
3379,1800.00
3380,0.00
3381,-1800.00
3382,-2000.00
3383,-280.00
3384,1640.00
3385,2080.00
3386,560.00
3387,-1440.00
3388,-2160.00
3389,-920.00
3390,1320.00
3391,2200.00
3392,1080.00
3393,-1000.00
3394,-2200.00
3395,-1320.00
3396,800.00
3397,2120.00
3398,1520.00
3399,-560.00
3400,-2080.00
3401,-1720.00
3402,320.00
3403,1960.00
3404,1800.00
3405,0.00
3406,-1800.00
3407,-2000.00
3408,-280.00
3409,1640.00
3410,2080.00
3411,560.00
3412,-1440.00
3413,-2160.00
3414,-880.00
3415,1320.00
3416,2200.00
3417,1080.00
3418,-1040.00
3419,-2200.00
3420,-1320.00
3421,800.00
3422,2120.00
3423,1520.00
3424,-560.00
3425,-2080.00
3426,-1720.00
3427,320.00
3428,1960.00
3429,1800.00
3430,0.00
3431,-1800.00
3432,-2000.00
3433,-280.00
3434,1680.00
3435,2080.00
3436,560.00
3437,-1440.00
3438,-2160.00
3439,-920.00
3440,1320.00
3441,2200.00
3442,1080.00
3443,-1040.00
3444,-2200.00
3445,-1320.00
3446,800.00
3447,2120.00
3448,1520.00
3449,-560.00
3450,-2080.00
3451,-1680.00
3452,320.00
3453,1960.00
3454,1800.00
3455,0.00
3456,-1800.00
3457,-2000.00
3458,-280.00
3459,1680.00
3460,2080.00
3461,560.00
3462,-1440.00
3463,-2160.00
3464,-880.00
3465,1320.00
3466,2200.00
3467,1080.00
3468,-1000.00
3469,-2200.00
3470,-1280.00
3471,800.00
3472,2120.00
3473,1480.00
3474,-560.00
3475,-2080.00
3476,-1640.00
3477,320.00
3478,1960.00
3479,1800.00
3480,0.00
3481,-1800.00
3482,-2000.00
3483,-280.00
3484,1680.00
3485,2080.00
3486,560.00
3487,-1440.00
3488,-2160.00
3489,-880.00
3490,1320.00
3491,2200.00
3492,1080.00
3493,-1040.00
3494,-2200.00
3495,-1320.00
3496,800.00
3497,2120.00
3498,1520.00
3499,-560.00
3500,-2080.00
3501,-1640.00
3502,320.00
3503,1960.00
3504,1800.00
3505,-40.00
3506,-1800.00
3507,-2000.00
3508,-240.00
3509,1680.00
3510,2080.00
3511,560.00
3512,-1440.00
3513,-2160.00
3514,-880.00
3515,1320.00
3516,2200.00
3517,1080.00
3518,-1040.00
3519,-2200.00
3520,-1320.00
3521,800.00
3522,2120.00
3523,1480.00
3524,-560.00
3525,-2080.00
3526,-1720.00
3527,320.00
3528,1960.00
3529,1800.00
3530,0.00
3531,-1800.00
3532,-2000.00
3533,-280.00
3534,1760.00
3535,2080.00
3536,560.00
3537,-1480.00
3538,-2160.00
3539,-880.00
3540,1320.00
3541,2200.00
3542,1080.00
3543,-1040.00
3544,-2200.00
3545,-1320.00
3546,840.00
3547,2120.00
3548,1480.00
3549,-560.00
3550,-2080.00
3551,-1680.00
3552,320.00
3553,1960.00
3554,1800.00
3555,0.00
3556,-1800.00
3557,-2000.00
3558,-280.00
3559,1680.00
3560,2040.00
3561,480.00
3562,-1440.00
3563,-2160.00
3564,-880.00
3565,1320.00
3566,2200.00
3567,1080.00
3568,-1040.00
3569,-2200.00
3570,-1320.00
3571,800.00
3572,2200.00
3573,1480.00
3574,-560.00
3575,-2080.00
3576,-1680.00
3577,320.00
3578,1960.00
3579,1800.00
3580,0.00
3581,-1800.00
3582,-2000.00
3583,-280.00
3584,1680.00
3585,2080.00
3586,560.00
3587,-1440.00
3588,-2160.00
3589,-880.00
3590,1320.00
3591,2200.00
3592,1080.00
3593,-1040.00
3594,-2200.00
3595,-1320.00
3596,840.00
3597,2160.00
3598,1480.00
3599,-560.00
3600,320.00
3601,1960.00
3602,1800.00
3603,-40.00
3604,-1800.00
3605,-2000.00
3606,-240.00
3607,1680.00
3608,2080.00
3609,560.00
3610,-1480.00
3611,-2160.00
3612,-880.00
3613,1320.00
3614,2200.00
3615,1080.00
3616,-1040.00
3617,-2200.00
3618,-1320.00
3619,800.00
3620,2160.00
3621,1480.00
3622,-560.00
3623,-2080.00
3624,-1680.00
3625,320.00
3626,1960.00
3627,1800.00
3628,0.00
3629,-1800.00
3630,-2000.00
3631,-280.00
3632,1680.00
3633,2080.00
3634,520.00
3635,-1440.00
3636,-2160.00
3637,-880.00
3638,1320.00
3639,2200.00
3640,1080.00
3641,-1040.00
3642,-2200.00
3643,-1320.00
3644,880.00
3645,2120.00
3646,1480.00
3647,-560.00
3648,-2080.00
3649,-1680.00
3650,320.00
3651,1960.00
3652,1800.00
3653,-40.00
3654,-1800.00
3655,-2000.00
3656,-240.00
3657,1680.00
3658,2080.00
3659,560.00
3660,-1440.00
3661,-2160.00
3662,-920.00
3663,1320.00
3664,2200.00
3665,1080.00
3666,-1000.00
3667,-2200.00
3668,-1320.00
3669,800.00
3670,2120.00
3671,1480.00
3672,-560.00
3673,-2080.00
3674,-1680.00
3675,320.00
3676,1960.00
3677,1800.00
3678,0.00
3679,-1800.00
3680,-2000.00
3681,-280.00
3682,1640.00
3683,2080.00
3684,560.00
3685,-1440.00
3686,-2160.00
3687,-880.00
3688,1280.00
3689,2200.00
3690,1080.00
3691,-1000.00
3692,-2200.00
3693,-1320.00
3694,800.00
3695,2120.00
3696,1480.00
3697,-560.00
3698,-2080.00
3699,-1680.00
3700,320.00
3701,1960.00
3702,1840.00
3703,0.00
3704,-1800.00
3705,-2000.00
3706,-280.00
3707,1680.00
3708,2080.00
3709,560.00
3710,-1440.00
3711,-2160.00
3712,-880.00
3713,1320.00
3714,2200.00
3715,1080.00
3716,-1000.00
3717,-2200.00
3718,-1320.00
3719,800.00
3720,2160.00
3721,1520.00
3722,-560.00
3723,-2080.00
3724,-1720.00
3725,280.00
3726,1960.00
3727,1800.00
3728,0.00
3729,-1800.00
3730,-2000.00
3731,-280.00
3732,1680.00
3733,2080.00
3734,520.00
3735,-1440.00
3736,-2160.00
3737,-880.00
3738,1320.00
3739,2200.00
3740,1120.00
3741,-1000.00
3742,-2200.00
3743,-1320.00
3744,800.00
3745,2160.00
3746,1520.00
3747,-560.00
3748,-2080.00
3749,-1680.00
3750,280.00
3751,1960.00
3752,1800.00
3753,0.00
3754,-1800.00
3755,-2000.00
3756,-280.00
3757,1640.00
3758,2080.00
3759,560.00
3760,-1440.00
3761,-2160.00
3762,-880.00
3763,1320.00
3764,2200.00
3765,1080.00
3766,-1040.00
3767,-2200.00
3768,-1320.00
3769,800.00
3770,2120.00
3771,1480.00
3772,-560.00
3773,-2080.00
3774,-1680.00
3775,280.00
3776,1960.00
3777,1800.00
3778,0.00
3779,-1800.00
3780,-2000.00
3781,-280.00
3782,1680.00
3783,2080.00
3784,560.00
3785,-1440.00
3786,-2160.00
3787,-880.00
3788,1320.00
3789,2200.00
3790,1080.00
3791,-1000.00
3792,-2200.00
3793,-1320.00
3794,800.00
3795,2120.00
3796,1480.00
3797,-560.00
3798,-2080.00
3799,-1680.00
3800,320.00
3801,1960.00
3802,1800.00
3803,0.00
3804,-1800.00
3805,-2000.00
3806,-280.00
3807,1680.00
3808,2080.00
3809,560.00
3810,-1440.00
3811,-2160.00
3812,-880.00
3813,1280.00
3814,2200.00
3815,1080.00
3816,-1000.00
3817,-2200.00
3818,-1320.00
3819,800.00
3820,2160.00
3821,1520.00
3822,-560.00
3823,-2080.00
3824,-1720.00
3825,320.00
3826,1960.00
3827,1800.00
3828,0.00
3829,-1800.00
3830,-2000.00
3831,-280.00
3832,1680.00
3833,2080.00
3834,560.00
3835,-1440.00
3836,-2160.00
3837,-880.00
3838,1320.00
3839,2200.00
3840,1080.00
3841,-1000.00
3842,-2200.00
3843,-1320.00
3844,840.00
3845,2160.00
3846,1480.00
3847,-560.00
3848,-2080.00
3849,-1680.00
3850,280.00
3851,1960.00
3852,1800.00
3853,-40.00
3854,-1800.00
3855,-2000.00
3856,-240.00
3857,1680.00
3858,2080.00
3859,560.00
3860,-1440.00
3861,-2160.00
3862,-880.00
3863,1320.00
3864,2200.00
3865,1120.00
3866,-1000.00
3867,-2200.00
3868,-1320.00
3869,800.00
3870,2160.00
3871,1520.00
3872,-560.00
3873,-2080.00
3874,-1680.00
3875,320.00
3876,1960.00
3877,1800.00
3878,0.00
3879,-1800.00
3880,-2000.00
3881,-280.00
3882,1680.00
3883,2080.00
3884,560.00
3885,-1480.00
3886,-2160.00
3887,-880.00
3888,1320.00
3889,2200.00
3890,1080.00
3891,-1080.00
3892,-2200.00
3893,-1320.00
3894,800.00
3895,2120.00
3896,1480.00
3897,-560.00
3898,-2080.00
3899,-1680.00
3900,320.00
3901,1960.00
3902,1800.00
3903,-40.00
3904,-1800.00
3905,-2040.00
3906,-1600.00
3907,-1400.00
3908,-1200.00
3909,-320.00
3910,1520.00
3911,2200.00
3912,880.00
3913,-1280.00
3914,-2200.00
3915,-1080.00
3916,1080.00
3917,2200.00
3918,1320.00
3919,-840.00
3920,-2160.00
3921,-1480.00
3922,560.00
3923,2080.00
3924,1920.00
3925,1560.00
3926,1400.00
3927,1200.00
3928,-160.00
3929,-1840.00
3930,-2000.00
3931,-240.00
3932,1680.00
3933,2080.00
3934,560.00
3935,-1440.00
3936,-2160.00
3937,-880.00
3938,1320.00
3939,2200.00
3940,1080.00
3941,-1040.00
3942,-2200.00
3943,-1800.00
3944,-1560.00
3945,-1320.00
3946,-1000.00
3947,720.00
3948,2160.00
3949,1920.00
3950,1520.00
3951,1360.00
3952,1200.00
3953,-200.00
3954,-1840.00
3955,-2040.00
3956,-240.00
3957,1680.00
3958,2080.00
3959,560.00
3960,-1440.00
3961,-2160.00
3962,-880.00
3963,1320.00
3964,2200.00
3965,1080.00
3966,-1040.00
3967,-2200.00
3968,-1840.00
3969,-1560.00
3970,-1320.00
3971,-1000.00
3972,720.00
3973,2160.00
3974,1680.00
3975,-320.00
3976,-2000.00
3977,-1800.00
3978,40.00
3979,1840.00
3980,1960.00
3981,200.00
3982,-1640.00
3983,-2080.00
3984,-520.00
3985,1480.00
3986,2160.00
3987,1680.00
3988,1480.00
3989,1320.00
3990,760.00
3991,-1160.00
3992,-2240.00
3993,-1840.00
3994,-1520.00
3995,-1320.00
3996,-1000.00
3997,760.00
3998,2200.00
3999,1680.00
4000,-320.00
4001,-2000.00
4002,-1800.00
4003,40.00
4004,1800.00
4005,2040.00
4006,1640.00
4007,1400.00
4008,1240.00
4009,320.00
4010,-1560.00
4011,-2200.00
4012,-920.00
4013,1280.00
4014,2200.00
4015,1080.00
4016,-1040.00
4017,-2200.00
4018,-1320.00
4019,800.00
4020,2160.00
4021,1520.00
4022,-560.00
4023,-2080.00
4024,-1840.00
4025,-1560.00
4026,-1400.00
4027,-1160.00
4028,200.00
4029,1960.00
4030,2000.00
4031,280.00
4032,-1600.00
4033,-2040.00
4034,-560.00
4035,1480.00
4036,2200.00
4037,880.00
4038,-1280.00
4039,-2200.00
4040,-1120.00
4041,1080.00
4042,2200.00
4043,1800.00
4044,1520.00
4045,1360.00
4046,1040.00
4047,-680.00
4048,-2160.00
4049,-1880.00
4050,-1560.00
4051,-1360.00
4052,-1160.00
4053,200.00
4054,1920.00
4055,2080.00
4056,1640.00
4057,1440.00
4058,1240.00
4059,320.00
4060,-1560.00
4061,-2200.00
4062,-1760.00
4063,-1440.00
4064,-1280.00
4065,-760.00
4066,1160.00
4067,2240.00
4068,1800.00
4069,1520.00
4070,1360.00
4071,1080.00
4072,-680.00
4073,-2160.00
4074,-1880.00
4075,-1560.00
4076,-1360.00
4077,-1120.00
4078,200.00
4079,1960.00
4080,2040.00
4081,1680.00
4082,1440.00
4083,1240.00
4084,320.00
4085,-1560.00
4086,-2240.00
4087,-1800.00
4088,-1480.00
4089,-1280.00
4090,-760.00
4091,1160.00
4092,2240.00
4093,1320.00
4094,-840.00
4095,-2160.00
4096,-1480.00
4097,560.00
4098,2080.00
4099,1920.00
4100,1560.00
4101,1400.00
4102,1200.00
4103,1120.00
4104,1080.00
4105,1040.00
4106,1080.00
4107,1080.00
4108,1080.00
4109,1080.00
4110,1080.00
4111,1080.00
4112,1080.00
4113,1080.00
4114,1080.00
4115,1080.00
4116,1080.00
4117,1080.00
4118,1040.00
4119,1080.00
4120,1080.00
4121,1040.00
4122,1080.00
4123,1040.00
4124,1040.00
4125,760.00
4126,80.00
4127,0.00
4128,-80.00
4129,-80.00
4130,-120.00
4131,0.00
4132,-40.00
4133,-40.00
4134,-40.00
4135,0.00
4136,-80.00
4137,0.00
4138,-120.00
4139,-40.00
4140,-120.00
4141,-40.00
4142,0.00
4143,0.00
4144,-40.00
4145,-80.00
4146,-80.00
4147,0.00
4148,-40.00
4149,-80.00
4150,-40.00
4151,0.00
4152,-80.00
4153,0.00
4154,-120.00
4155,0.00
4156,-80.00
4157,0.00
4158,-80.00
4159,0.00
4160,0.00
4161,-80.00
4162,-80.00
4163,-80.00
4164,-80.00
4165,0.00
4166,-80.00
4167,-80.00
4168,0.00
4169,-40.00
4170,0.00
4171,-80.00
4172,-40.00
4173,-80.00
4174,-40.00
4175,0.00
4176,-40.00
4177,-40.00
4178,0.00
4179,0.00
4180,0.00
4181,-80.00
4182,-40.00
4183,-80.00
4184,0.00
4185,0.00
4186,-80.00
4187,-120.00
4188,0.00
4189,-80.00
4190,-40.00
4191,-80.00
4192,-40.00
4193,0.00
4194,0.00
4195,0.00
4196,-120.00
4197,-40.00
4198,-80.00
4199,-40.00
4200,-80.00
4201,0.00
4202,-80.00
4203,-40.00
4204,-80.00
4205,0.00
4206,0.00
4207,-40.00
4208,-40.00
4209,0.00
4210,-40.00
4211,0.00
4212,-80.00
4213,-80.00
4214,-80.00
4215,0.00
4216,-40.00
4217,-40.00
4218,-80.00
4219,-40.00
4220,-80.00
4221,-80.00
4222,0.00
4223,0.00
4224,-40.00
4225,-80.00
4226,0.00
4227,-80.00
4228,-40.00
4229,-80.00
4230,-40.00
4231,-40.00
4232,-40.00
4233,-80.00
4234,-40.00
4235,-40.00
4236,-80.00
4237,0.00
4238,0.00
4239,-40.00
4240,0.00
4241,0.00
4242,0.00
4243,0.00
4244,-80.00
4245,-120.00
4246,0.00
4247,-40.00
4248,-40.00
4249,-80.00
4250,-40.00
4251,-40.00
4252,0.00
4253,-40.00
4254,0.00
4255,-80.00
4256,0.00
4257,-80.00
4258,-40.00
4259,-120.00
4260,-80.00
4261,-40.00
4262,-40.00
4263,-40.00
4264,0.00
4265,-80.00
4266,-40.00
4267,-80.00
4268,-40.00
4269,-40.00
4270,-80.00
4271,0.00
4272,0.00
4273,-40.00
4274,-80.00
4275,0.00
4276,-40.00
4277,0.00
4278,-80.00
4279,0.00
4280,-80.00
4281,-80.00
4282,-80.00
4283,-80.00
4284,-80.00
4285,-80.00
4286,0.00
4287,-40.00
4288,0.00
4289,-120.00
4290,0.00
4291,-80.00
4292,-40.00
4293,0.00
4294,-40.00
4295,-80.00
4296,-120.00
4297,0.00
4298,0.00
4299,0.00
4300,-80.00
4301,-120.00
4302,0.00
4303,-40.00
4304,0.00
4305,-120.00
4306,-80.00
4307,-80.00
4308,-80.00
4309,-80.00
4310,-40.00
4311,0.00
4312,0.00
4313,0.00
4314,0.00
4315,-80.00
4316,-80.00
4317,0.00
4318,-40.00
4319,0.00
4320,-120.00
4321,0.00
4322,-120.00
4323,-40.00
4324,-80.00
4325,0.00
4326,0.00
4327,-80.00
4328,-40.00
4329,0.00
4330,-40.00
4331,-40.00
4332,-80.00
4333,0.00
4334,-80.00
4335,0.00
4336,0.00
4337,-40.00
4338,0.00
4339,-80.00
4340,-40.00
4341,-40.00
4342,-40.00
4343,-80.00
4344,0.00
4345,-40.00
4346,0.00
4347,0.00
4348,-40.00
4349,0.00
4350,-80.00
4351,-80.00
4352,0.00
4353,-40.00
4354,-40.00
4355,-80.00
4356,0.00
4357,0.00
4358,-40.00
4359,0.00
4360,0.00
4361,-80.00
4362,0.00
4363,-80.00
4364,-80.00
4365,0.00
4366,0.00
4367,0.00
4368,-80.00
4369,-80.00
4370,0.00
4371,-40.00
4372,0.00
4373,-80.00
4374,0.00
4375,0.00
4376,0.00
4377,0.00
4378,-80.00
4379,0.00
4380,-80.00
4381,0.00
4382,0.00
4383,-40.00
4384,-40.00
4385,-80.00
4386,0.00
4387,0.00
4388,-80.00
4389,0.00
4390,0.00
4391,0.00
4392,-80.00
4393,-80.00
4394,0.00
4395,0.00
4396,-40.00
4397,-80.00
4398,-80.00
4399,0.00
4400,0.00
4401,0.00
4402,-80.00
4403,0.00
4404,0.00
4405,0.00
4406,0.00
4407,-80.00
4408,0.00
4409,-40.00
4410,0.00
4411,0.00
4412,0.00
4413,0.00
4414,-80.00
4415,0.00
4416,0.00
4417,0.00
4418,0.00
4419,-40.00
4420,0.00
4421,0.00
4422,0.00
4423,0.00
4424,-80.00
4425,0.00
4426,0.00
4427,0.00
4428,0.00
4429,-80.00
4430,0.00
4431,0.00
4432,0.00
4433,0.00
4434,-80.00
4435,0.00
4436,0.00
4437,0.00
4438,0.00
4439,-80.00
4440,0.00
4441,-80.00
4442,0.00
4443,0.00
4444,0.00
4445,0.00
4446,-40.00
4447,0.00
4448,0.00
4449,0.00
4450,0.00
4451,-40.00
4452,0.00
4453,0.00
4454,0.00
4455,0.00
4456,-40.00
4457,0.00
4458,0.00
4459,0.00
4460,0.00
4461,-80.00
4462,0.00
4463,0.00
4464,0.00
4465,0.00
4466,-80.00
4467,0.00
4468,0.00
4469,0.00
4470,0.00
4471,-80.00
4472,0.00
4473,0.00
4474,0.00
4475,0.00
4476,-80.00
4477,0.00
4478,0.00
4479,0.00
4480,0.00
4481,-80.00
4482,0.00
4483,0.00
4484,0.00
4485,0.00
4486,-80.00
4487,0.00
4488,0.00
4489,0.00
4490,0.00
4491,-80.00
4492,0.00
4493,0.00
4494,0.00
4495,0.00
4496,-80.00
4497,0.00
4498,0.00
4499,0.00
4500,0.00
4501,-80.00
4502,0.00
4503,0.00
4504,0.00
4505,0.00
4506,-80.00
4507,0.00
4508,0.00
4509,0.00
4510,0.00
4511,-40.00
4512,0.00
4513,0.00
4514,0.00
4515,0.00
4516,-80.00
4517,0.00
4518,0.00
4519,0.00
4520,0.00
4521,-80.00
4522,0.00
4523,0.00
4524,0.00
4525,0.00
4526,-80.00
4527,0.00
4528,0.00
4529,0.00
4530,0.00
4531,-40.00
4532,0.00
4533,0.00
4534,0.00
4535,0.00
4536,-80.00
4537,0.00
4538,0.00
4539,0.00
4540,0.00
4541,-80.00
4542,0.00
4543,0.00
4544,0.00
4545,0.00
4546,-80.00
4547,0.00
4548,0.00
4549,0.00
4550,0.00
4551,-40.00
4552,0.00
4553,0.00
4554,0.00
4555,0.00
4556,-80.00
4557,0.00
4558,0.00
4559,0.00
4560,0.00
4561,-40.00
4562,0.00
4563,0.00
4564,0.00
4565,0.00
4566,-80.00
4567,0.00
4568,0.00
4569,0.00
4570,0.00
4571,-40.00
4572,0.00
4573,0.00
4574,0.00
4575,0.00
4576,-80.00
4577,0.00
4578,0.00
4579,0.00
4580,0.00
4581,-80.00
4582,0.00
4583,0.00
4584,0.00
4585,0.00
4586,-40.00
4587,0.00
4588,0.00
4589,0.00
4590,0.00
4591,0.00
4592,0.00
4593,0.00
4594,0.00
4595,0.00
4596,0.00
4597,0.00
4598,0.00
4599,0.00
4600,0.00
4601,0.00
4602,0.00
4603,0.00
4604,0.00
4605,0.00
4606,0.00
4607,0.00
4608,0.00
4609,0.00
4610,0.00
4611,0.00
4612,0.00
4613,0.00
4614,0.00
4615,0.00
4616,0.00
4617,0.00
4618,0.00
4619,0.00
4620,0.00
4621,0.00
4622,0.00
4623,0.00
4624,0.00
4625,0.00
4626,0.00
4627,0.00
4628,0.00
4629,0.00
4630,0.00
4631,0.00
4632,0.00
4633,0.00
4634,0.00
4635,0.00
4636,0.00
4637,0.00
4638,0.00
4639,0.00
4640,0.00
4641,0.00
4642,0.00
4643,0.00
4644,0.00
4645,0.00
4646,0.00
4647,0.00
4648,0.00
4649,0.00
4650,0.00
4651,0.00
4652,0.00
4653,0.00
4654,0.00
4655,0.00
4656,0.00
4657,0.00
4658,0.00
4659,0.00
4660,0.00
4661,0.00
4662,0.00
4663,0.00
4664,0.00
4665,0.00
4666,0.00
4667,0.00
4668,0.00
4669,0.00
4670,0.00
4671,0.00
4672,0.00
4673,0.00
4674,0.00
4675,0.00
4676,0.00
4677,0.00
4678,0.00
4679,0.00
4680,0.00
4681,0.00
4682,0.00
4683,0.00
4684,0.00
4685,0.00
4686,0.00
4687,0.00
4688,0.00
4689,0.00
4690,0.00
4691,0.00
4692,0.00
4693,0.00
4694,0.00
4695,0.00
4696,0.00
4697,0.00
4698,0.00
4699,0.00
4700,0.00
4701,0.00
4702,0.00
4703,0.00
4704,0.00
4705,0.00
4706,0.00
4707,0.00
4708,0.00
4709,0.00
4710,0.00
4711,0.00
4712,0.00
4713,0.00
4714,0.00
4715,0.00
4716,0.00
4717,0.00
4718,0.00
4719,0.00
4720,0.00
4721,0.00
4722,0.00
4723,0.00
4724,0.00
4725,0.00
4726,0.00
4727,0.00
4728,0.00
4729,0.00
4730,0.00
4731,0.00
4732,0.00
4733,0.00
4734,0.00
4735,0.00
4736,0.00
4737,0.00
4738,0.00
4739,0.00
4740,0.00
4741,0.00
4742,0.00
4743,0.00
4744,0.00
4745,0.00
4746,0.00
4747,0.00
4748,0.00
4749,0.00
4750,0.00
4751,0.00
4752,0.00
4753,0.00
4754,0.00
4755,0.00
4756,0.00
4757,0.00
4758,0.00
4759,0.00
4760,0.00
4761,0.00
4762,0.00
4763,0.00
4764,0.00
4765,0.00
4766,0.00
4767,0.00
4768,0.00
4769,0.00
4770,0.00
4771,0.00
4772,0.00
4773,0.00
4774,0.00
4775,0.00
4776,0.00
4777,0.00
4778,0.00
4779,0.00
4780,0.00
4781,0.00
4782,0.00
4783,0.00
4784,0.00
4785,0.00
4786,0.00
4787,0.00
4788,0.00
4789,0.00
4790,0.00
4791,0.00
4792,0.00
4793,0.00
4794,0.00
4795,0.00
4796,0.00
4797,0.00
4798,0.00
4799,0.00
4800,0.00
4801,0.00
4802,0.00
4803,0.00
4804,0.00
4805,0.00
4806,0.00
4807,0.00
4808,0.00
4809,0.00
4810,0.00
4811,0.00
4812,0.00
4813,0.00
4814,0.00
4815,0.00
4816,0.00
4817,0.00
4818,0.00
4819,0.00
4820,0.00
4821,0.00
4822,0.00
4823,0.00
4824,0.00
4825,0.00
4826,0.00
4827,0.00
4828,0.00
4829,0.00
4830,0.00
4831,0.00
4832,0.00
4833,0.00
4834,0.00
4835,0.00
4836,0.00
4837,0.00
4838,0.00
4839,0.00
4840,0.00
4841,0.00
4842,0.00
4843,0.00
4844,0.00
4845,0.00
4846,0.00
4847,0.00
4848,0.00
4849,0.00
4850,0.00
4851,0.00
4852,0.00
4853,0.00
4854,0.00
4855,0.00
4856,0.00
4857,0.00
4858,0.00
4859,0.00
4860,0.00
4861,0.00
4862,0.00
4863,0.00
4864,0.00
4865,0.00
4866,0.00
4867,0.00
4868,0.00
4869,0.00
4870,0.00
4871,0.00
4872,0.00
4873,0.00
4874,0.00
4875,0.00
4876,0.00
4877,0.00
4878,0.00
4879,0.00
4880,0.00
4881,0.00
4882,0.00
4883,0.00
4884,0.00
4885,0.00
4886,0.00
4887,0.00
4888,0.00
4889,0.00
4890,0.00
4891,0.00
4892,0.00
4893,0.00
4894,0.00
4895,0.00
4896,0.00
4897,0.00
4898,0.00
4899,0.00
4900,0.00
4901,0.00
4902,0.00
4903,0.00
4904,0.00
4905,0.00
4906,0.00
4907,0.00
4908,0.00
4909,0.00
4910,0.00
4911,0.00
4912,0.00
4913,0.00
4914,0.00
4915,0.00
4916,0.00
4917,0.00
4918,0.00
4919,0.00
4920,0.00
4921,0.00
4922,0.00
4923,0.00
4924,0.00
4925,0.00
4926,0.00
4927,0.00
4928,0.00
4929,0.00
4930,0.00
4931,0.00
4932,0.00
4933,0.00
4934,0.00
4935,0.00
4936,0.00
4937,0.00
4938,0.00
4939,0.00
4940,0.00
4941,0.00
4942,0.00
4943,0.00
4944,0.00
4945,0.00
4946,0.00
4947,0.00
4948,0.00
4949,0.00
4950,0.00
4951,0.00
4952,0.00
4953,0.00
4954,0.00
4955,0.00
4956,0.00
4957,0.00
4958,0.00
4959,0.00
4960,0.00
4961,0.00
4962,0.00
4963,0.00
4964,0.00
4965,0.00
4966,0.00
4967,0.00
4968,0.00
4969,0.00
4970,0.00
4971,0.00
4972,0.00
4973,0.00
4974,0.00
4975,0.00
4976,0.00
4977,0.00
4978,0.00
4979,0.00
4980,0.00
4981,0.00
4982,0.00
4983,0.00
4984,0.00
4985,0.00
4986,0.00
4987,0.00
4988,0.00
4989,0.00
4990,0.00
4991,0.00
4992,0.00
4993,0.00
4994,0.00
4995,0.00
4996,0.00
4997,0.00
4998,0.00
4999,0.00
5000,0.00
5001,0.00
5002,0.00
5003,0.00
5004,0.00
5005,0.00
5006,0.00
5007,0.00
5008,0.00
5009,0.00
5010,0.00
5011,0.00
5012,0.00
5013,0.00
5014,0.00
5015,0.00
5016,0.00
5017,0.00
5018,0.00
5019,0.00
5020,0.00
5021,0.00
5022,0.00
5023,0.00
5024,0.00
5025,0.00
5026,0.00
5027,0.00
5028,0.00
5029,0.00
5030,0.00
5031,0.00
5032,0.00
5033,0.00
5034,0.00
5035,0.00
5036,0.00
5037,0.00
5038,0.00
5039,0.00
5040,0.00
5041,0.00
5042,0.00
5043,0.00
5044,0.00
5045,0.00
5046,0.00
5047,0.00
5048,0.00
5049,0.00
5050,0.00
5051,0.00
5052,0.00
5053,0.00
5054,0.00
5055,0.00
5056,0.00
5057,0.00
5058,0.00
5059,0.00
5060,0.00
5061,0.00
5062,0.00
5063,0.00
5064,0.00
5065,0.00
5066,0.00
5067,0.00
5068,0.00
5069,0.00
5070,0.00
5071,0.00
5072,0.00
5073,0.00
5074,0.00
5075,0.00
5076,0.00
5077,0.00
5078,0.00
5079,0.00
5080,0.00
5081,0.00
5082,0.00
5083,0.00
5084,0.00
5085,0.00
5086,0.00
5087,0.00
5088,0.00
5089,0.00
5090,0.00
5091,0.00
5092,0.00
5093,0.00
5094,0.00
5095,0.00
5096,0.00
5097,0.00
5098,0.00
5099,0.00
5100,0.00
5101,0.00
5102,0.00
5103,0.00
5104,0.00
5105,0.00
5106,0.00
5107,0.00
5108,0.00
5109,0.00
5110,0.00
5111,0.00
5112,0.00
5113,0.00
5114,0.00
5115,0.00
5116,0.00
5117,0.00
5118,0.00
5119,0.00
5120,0.00
5121,0.00
5122,0.00
5123,0.00
5124,0.00
5125,0.00
5126,0.00
5127,0.00
5128,0.00
5129,0.00
5130,0.00
5131,0.00
5132,0.00
5133,0.00
5134,0.00
5135,0.00
5136,0.00
5137,0.00
5138,0.00
5139,0.00
5140,0.00
5141,0.00
5142,0.00
5143,0.00
5144,0.00
5145,0.00
5146,0.00
5147,0.00
5148,0.00
5149,0.00
5150,0.00
5151,0.00
5152,0.00
5153,0.00
5154,0.00
5155,0.00
5156,0.00
5157,0.00
5158,0.00
5159,0.00
5160,0.00
5161,0.00
5162,0.00
5163,0.00
5164,0.00
5165,0.00
5166,0.00
5167,0.00
5168,0.00
5169,0.00
5170,0.00
5171,0.00
5172,0.00
5173,0.00
5174,0.00
5175,0.00
5176,0.00
5177,0.00
5178,0.00
5179,0.00
5180,0.00
5181,0.00
5182,0.00
5183,0.00
5184,0.00
5185,0.00
5186,0.00
5187,0.00
5188,0.00
5189,0.00
5190,0.00
5191,0.00
5192,0.00
5193,0.00
5194,0.00
5195,0.00
5196,0.00
5197,0.00
5198,0.00
5199,0.00
5200,0.00
5201,0.00
5202,0.00
5203,0.00
5204,0.00
5205,0.00
5206,0.00
5207,0.00
5208,0.00
5209,0.00
5210,0.00
5211,0.00
5212,0.00
5213,0.00
5214,0.00
5215,0.00
5216,0.00
5217,0.00
5218,0.00
5219,0.00
5220,0.00
5221,0.00
5222,0.00
5223,0.00
5224,0.00
5225,0.00
5226,0.00
5227,0.00
5228,0.00
5229,0.00
5230,0.00
5231,0.00
5232,0.00
5233,0.00
5234,0.00
5235,0.00
5236,0.00
5237,0.00
5238,0.00
5239,0.00
5240,0.00
5241,0.00
5242,0.00
5243,0.00
5244,0.00
5245,0.00
5246,0.00
5247,0.00
5248,0.00
5249,0.00
5250,0.00
5251,0.00
5252,0.00
5253,0.00
5254,0.00
5255,0.00
5256,0.00
5257,0.00
5258,0.00
5259,0.00
5260,0.00
5261,0.00
5262,0.00
5263,0.00
5264,0.00
5265,0.00
5266,0.00
5267,0.00
5268,0.00
5269,0.00
5270,0.00
5271,0.00
5272,0.00
5273,0.00
5274,0.00
5275,0.00
5276,0.00
5277,0.00
5278,0.00
5279,0.00
5280,0.00
5281,0.00
5282,0.00
5283,0.00
5284,0.00
5285,0.00
5286,0.00
5287,0.00
5288,0.00
5289,0.00
5290,0.00
5291,0.00
5292,0.00
5293,0.00
5294,0.00
5295,0.00
5296,0.00
5297,0.00
5298,0.00
5299,0.00
5300,0.00
5301,0.00
5302,0.00
5303,0.00
5304,0.00
5305,0.00
5306,0.00
5307,0.00
5308,0.00
5309,0.00
5310,0.00
5311,0.00
5312,0.00
5313,0.00
5314,0.00
5315,0.00
5316,0.00
5317,0.00
5318,0.00
5319,0.00
5320,0.00
5321,0.00
5322,0.00
5323,0.00
5324,0.00
5325,0.00
5326,0.00
5327,0.00
5328,0.00
5329,0.00
5330,0.00
5331,0.00
5332,0.00
5333,0.00
5334,0.00
5335,0.00
5336,0.00
5337,0.00
5338,0.00
5339,0.00
5340,0.00
5341,0.00
5342,0.00
5343,0.00
5344,0.00
5345,0.00
5346,0.00
5347,0.00
5348,0.00
5349,0.00
5350,0.00
5351,0.00
5352,0.00
5353,0.00
5354,0.00
5355,0.00
5356,0.00
5357,0.00
5358,0.00
5359,0.00
5360,0.00
5361,0.00
5362,0.00
5363,0.00
5364,0.00
5365,0.00
5366,0.00
5367,0.00
5368,0.00
5369,0.00
5370,0.00
5371,0.00
5372,0.00
5373,0.00
5374,0.00
5375,0.00
5376,0.00
5377,0.00
5378,0.00
5379,0.00
5380,0.00
5381,0.00
5382,0.00
5383,0.00
5384,0.00
5385,0.00
5386,0.00
5387,0.00
5388,0.00
5389,0.00
5390,0.00
5391,0.00
5392,0.00
5393,0.00
5394,0.00
5395,0.00
5396,0.00
5397,0.00
5398,0.00
5399,0.00
5400,0.00
5401,0.00
5402,0.00
5403,0.00
5404,0.00
5405,0.00
5406,0.00
5407,0.00
5408,0.00
5409,0.00
5410,0.00
5411,0.00
5412,0.00
5413,0.00
5414,0.00
5415,0.00
5416,0.00
5417,0.00
5418,0.00
5419,0.00
5420,0.00
5421,0.00
5422,0.00
5423,0.00
5424,0.00
5425,0.00
5426,0.00
5427,0.00
5428,0.00
5429,0.00
5430,0.00
5431,0.00
5432,0.00
5433,0.00
5434,0.00
5435,0.00
5436,0.00
5437,0.00
5438,0.00
5439,0.00
5440,0.00
5441,0.00
5442,0.00
5443,0.00
5444,0.00
5445,0.00
5446,0.00
5447,0.00
5448,0.00
5449,0.00
5450,0.00
5451,0.00
5452,0.00
5453,0.00
5454,0.00
5455,0.00
5456,0.00
5457,0.00
5458,0.00
5459,0.00
5460,0.00
5461,0.00
5462,0.00
5463,0.00
5464,0.00
5465,0.00
5466,0.00
5467,0.00
5468,0.00
5469,0.00
5470,0.00
5471,0.00
5472,0.00
5473,0.00
5474,0.00
5475,0.00
5476,0.00
5477,0.00
5478,0.00
5479,0.00
5480,0.00
5481,0.00
5482,0.00
5483,0.00
5484,0.00
5485,0.00
5486,0.00
5487,0.00
5488,0.00
5489,0.00
5490,0.00
5491,0.00
5492,0.00
5493,0.00
5494,0.00
5495,0.00
5496,0.00
5497,0.00
5498,0.00
5499,0.00
5500,0.00
5501,0.00
5502,0.00
5503,0.00
5504,0.00
5505,0.00
5506,0.00
5507,0.00
5508,0.00
5509,0.00
5510,0.00
5511,0.00
5512,0.00
5513,0.00
5514,0.00
5515,0.00
5516,0.00
5517,0.00
5518,0.00
5519,0.00
5520,0.00
5521,0.00
5522,0.00
5523,0.00
5524,0.00
5525,0.00
5526,0.00
5527,0.00
5528,0.00
5529,0.00
5530,0.00
5531,0.00
5532,0.00
5533,0.00
5534,0.00
5535,0.00
5536,0.00
5537,0.00
5538,0.00
5539,0.00
5540,0.00
5541,0.00
5542,0.00
5543,0.00
5544,0.00
5545,0.00
5546,0.00
5547,0.00
5548,0.00
5549,0.00
5550,0.00
5551,0.00
5552,0.00
5553,0.00
5554,0.00
5555,0.00
5556,0.00
5557,0.00
5558,0.00
5559,0.00
5560,0.00
5561,0.00
5562,0.00
5563,0.00
5564,0.00
5565,0.00
5566,0.00
5567,0.00
5568,0.00
5569,0.00
5570,0.00
5571,0.00
5572,0.00
5573,0.00
5574,0.00
5575,0.00
5576,0.00
5577,0.00
5578,0.00
5579,0.00
5580,0.00
5581,0.00
5582,0.00
5583,0.00
5584,0.00
5585,0.00
5586,0.00
5587,0.00
5588,0.00
5589,0.00
5590,0.00
5591,0.00
5592,0.00
5593,0.00
5594,0.00
5595,0.00
5596,0.00
5597,0.00
5598,0.00
5599,0.00
5600,0.00
5601,0.00
5602,0.00
5603,0.00
5604,0.00
5605,0.00
5606,0.00
5607,0.00
5608,0.00
5609,0.00
5610,0.00
5611,0.00
5612,0.00
5613,0.00
5614,0.00
5615,0.00
5616,0.00
5617,0.00
5618,0.00
5619,0.00
5620,0.00
5621,0.00
5622,0.00
5623,0.00
5624,0.00
5625,0.00
5626,0.00
5627,0.00
5628,0.00
5629,0.00
5630,0.00
5631,0.00
5632,0.00
5633,0.00
5634,0.00
5635,0.00
5636,0.00
5637,0.00
5638,0.00
5639,0.00
5640,0.00
5641,0.00
5642,0.00
5643,0.00
5644,0.00
5645,0.00
5646,0.00
5647,0.00
5648,0.00
5649,0.00
5650,0.00
5651,0.00
5652,0.00
5653,0.00
5654,0.00
5655,0.00
5656,0.00
5657,0.00
5658,0.00
5659,0.00
5660,0.00
5661,0.00
5662,0.00
5663,0.00
5664,0.00
5665,0.00
5666,0.00
5667,0.00
5668,0.00
5669,0.00
5670,0.00
5671,0.00
5672,0.00
5673,0.00
5674,0.00
5675,0.00
5676,0.00
5677,0.00
5678,0.00
5679,0.00
5680,0.00
5681,0.00
5682,0.00
5683,0.00
5684,0.00
5685,0.00
5686,0.00
5687,0.00
5688,0.00
5689,0.00
5690,0.00
5691,0.00
5692,0.00
5693,0.00
5694,0.00
5695,0.00
5696,0.00
5697,0.00
5698,0.00
5699,0.00
5700,0.00
5701,0.00
5702,0.00
5703,0.00
5704,40.00
5705,0.00
5706,0.00
5707,0.00
5708,0.00
5709,0.00
5710,0.00
5711,0.00
5712,0.00
5713,0.00
5714,0.00
5715,0.00
5716,0.00
5717,0.00
5718,0.00
5719,0.00
5720,0.00
5721,0.00
5722,0.00
5723,0.00
5724,0.00
5725,0.00
5726,0.00
5727,0.00
5728,0.00
5729,0.00
5730,0.00
5731,0.00
5732,0.00
5733,0.00
5734,0.00
5735,0.00
5736,0.00
5737,0.00
5738,0.00
5739,0.00
5740,0.00
5741,0.00
5742,0.00
5743,0.00
5744,0.00
5745,0.00
5746,0.00
5747,0.00
5748,0.00
5749,0.00
5750,0.00
5751,0.00
5752,0.00
5753,0.00
5754,0.00
5755,0.00
5756,0.00
5757,0.00
5758,0.00
5759,0.00
5760,0.00
5761,0.00
5762,0.00
5763,0.00
5764,0.00
5765,0.00
5766,0.00
5767,0.00
5768,0.00
5769,0.00
5770,0.00
5771,0.00
5772,0.00
5773,0.00
5774,0.00
5775,0.00
5776,0.00
5777,0.00
5778,0.00
5779,0.00
5780,0.00
5781,0.00
5782,0.00
5783,0.00
5784,0.00
5785,0.00
5786,0.00
5787,0.00
5788,0.00
5789,0.00
5790,0.00
5791,0.00
5792,0.00
5793,0.00
5794,0.00
5795,0.00
5796,0.00
5797,0.00
5798,0.00
5799,0.00
5800,0.00
5801,0.00
5802,0.00
5803,0.00
5804,0.00
5805,0.00
5806,0.00
5807,0.00
5808,0.00
5809,0.00
5810,0.00
5811,0.00
5812,0.00
5813,0.00
5814,0.00
5815,0.00
5816,0.00
5817,0.00
5818,0.00
5819,0.00
5820,0.00
5821,0.00
5822,0.00
5823,0.00
5824,0.00
5825,0.00
5826,0.00
5827,0.00
5828,0.00
5829,0.00
5830,0.00
5831,0.00
5832,0.00
5833,0.00
5834,0.00
5835,0.00
5836,0.00
5837,0.00
5838,0.00
5839,0.00
5840,0.00
5841,0.00
5842,0.00
5843,0.00
5844,0.00
5845,0.00
5846,0.00
5847,0.00
5848,0.00
5849,0.00
5850,0.00
5851,0.00
5852,0.00
5853,0.00
5854,0.00
5855,0.00
5856,0.00
5857,0.00
5858,0.00
5859,0.00
5860,40.00
5861,0.00
5862,0.00
5863,0.00
5864,0.00
5865,0.00
5866,0.00
5867,0.00
5868,0.00
5869,0.00
5870,0.00
5871,0.00
5872,0.00
5873,0.00
5874,0.00
5875,0.00
5876,0.00
5877,0.00
5878,0.00
5879,0.00
5880,0.00
5881,0.00
5882,0.00
5883,0.00
5884,0.00
5885,0.00
5886,0.00
5887,0.00
5888,0.00
5889,0.00
5890,0.00
5891,0.00
5892,0.00
5893,0.00
5894,0.00
5895,0.00
5896,40.00
5897,0.00
5898,0.00
5899,0.00
5900,0.00
5901,0.00
5902,0.00
5903,0.00
5904,0.00
5905,0.00
5906,0.00
5907,0.00
5908,0.00
5909,0.00
5910,0.00
5911,0.00
5912,0.00
5913,0.00
5914,0.00
5915,0.00
5916,0.00
5917,0.00
5918,0.00
5919,0.00
5920,0.00
5921,0.00
5922,0.00
5923,0.00
5924,0.00
5925,0.00
5926,0.00
5927,0.00
5928,0.00
5929,0.00
5930,0.00
5931,0.00
5932,0.00
5933,0.00
5934,0.00
5935,0.00
5936,0.00
5937,0.00
5938,0.00
5939,0.00
5940,0.00
5941,0.00
5942,0.00
5943,0.00
5944,0.00
5945,0.00
5946,0.00
5947,0.00
5948,0.00
5949,0.00
5950,0.00
5951,0.00
5952,0.00
5953,0.00
5954,0.00
5955,0.00
5956,0.00
5957,0.00
5958,0.00
5959,0.00
5960,0.00
5961,0.00
5962,0.00
5963,0.00
5964,0.00
5965,0.00
5966,0.00
5967,0.00
5968,0.00
5969,0.00
5970,0.00
5971,0.00
5972,0.00
5973,0.00
5974,0.00
5975,0.00
5976,0.00
5977,0.00
5978,0.00
5979,0.00
5980,0.00
5981,0.00
5982,0.00
5983,0.00
5984,0.00
5985,0.00
5986,0.00
5987,0.00
5988,0.00
5989,0.00
5990,0.00
5991,0.00
5992,0.00
5993,0.00
5994,0.00
5995,0.00
5996,0.00
5997,0.00
5998,0.00
5999,0.00
6000,0.00
6001,0.00
6002,0.00
6003,0.00
6004,0.00
6005,0.00
6006,0.00
6007,0.00
6008,0.00
6009,0.00
6010,0.00
6011,0.00
6012,0.00
6013,0.00
6014,0.00
6015,0.00
6016,0.00
6017,0.00
6018,0.00
6019,0.00
6020,0.00
6021,0.00
6022,0.00
6023,0.00
6024,0.00
6025,0.00
6026,0.00
6027,0.00
6028,0.00
6029,0.00
6030,0.00
6031,0.00
6032,0.00
6033,0.00
6034,0.00
6035,0.00
6036,0.00
6037,0.00
6038,0.00
6039,0.00
6040,0.00
6041,0.00
6042,0.00
6043,0.00
6044,0.00
6045,0.00
6046,0.00
6047,0.00
6048,0.00
6049,0.00
6050,0.00
6051,0.00
6052,0.00
6053,0.00
6054,0.00
6055,0.00
6056,0.00
6057,0.00
6058,0.00
6059,0.00
6060,0.00
6061,0.00
6062,0.00
6063,0.00
6064,0.00
6065,0.00
6066,0.00
6067,0.00
6068,0.00
6069,0.00
6070,0.00
6071,0.00
6072,0.00
6073,0.00
6074,0.00
6075,0.00
6076,0.00
6077,0.00
6078,0.00
6079,0.00
6080,0.00
6081,0.00
6082,0.00
6083,0.00
6084,0.00
6085,0.00
6086,0.00
6087,0.00
6088,0.00
6089,0.00
6090,0.00
6091,0.00
6092,0.00
6093,0.00
6094,0.00
6095,0.00
6096,0.00
6097,0.00
6098,0.00
6099,0.00
6100,0.00
6101,0.00
6102,0.00
6103,0.00
6104,0.00
6105,0.00
6106,0.00
6107,0.00
6108,0.00
6109,0.00
6110,0.00
6111,0.00
6112,0.00
6113,0.00
6114,0.00
6115,0.00
6116,0.00
6117,0.00
6118,0.00
6119,0.00
6120,0.00
6121,0.00
6122,0.00
6123,0.00
6124,0.00
6125,0.00
6126,0.00
6127,0.00
6128,0.00
6129,0.00
6130,0.00
6131,0.00
6132,0.00
6133,0.00
6134,0.00
6135,0.00
6136,0.00
6137,0.00
6138,0.00
6139,0.00
6140,0.00
6141,0.00
6142,0.00
6143,0.00
6144,0.00
6145,0.00
6146,0.00
6147,0.00
6148,0.00
6149,0.00
6150,0.00
6151,0.00
6152,0.00
6153,0.00
6154,0.00
6155,0.00
6156,0.00
6157,0.00
6158,0.00
6159,0.00
6160,0.00
6161,0.00
6162,0.00
6163,0.00
6164,0.00
6165,0.00
6166,0.00
6167,0.00
6168,0.00
6169,0.00
6170,0.00
6171,0.00
6172,0.00
6173,0.00
6174,0.00
6175,0.00
6176,0.00
6177,0.00
6178,0.00
6179,0.00
6180,0.00
6181,0.00
6182,0.00
6183,0.00
6184,0.00
6185,0.00
6186,0.00
6187,0.00
6188,0.00
6189,0.00
6190,0.00
6191,0.00
6192,0.00
6193,0.00
6194,0.00
6195,0.00
6196,0.00
6197,0.00
6198,0.00
6199,0.00
6200,0.00
6201,0.00
6202,0.00
6203,0.00
6204,0.00
6205,0.00
6206,0.00
6207,0.00
6208,0.00
6209,0.00
6210,0.00
6211,0.00
6212,0.00
6213,0.00
6214,0.00
6215,0.00
6216,0.00
6217,0.00
6218,0.00
6219,0.00
6220,0.00
6221,0.00
6222,0.00
6223,0.00
6224,0.00
6225,0.00
6226,0.00
6227,0.00
6228,0.00
6229,0.00
6230,0.00
6231,0.00
6232,0.00
6233,0.00
6234,0.00
6235,0.00
6236,0.00
6237,0.00
6238,0.00
6239,0.00
6240,0.00
6241,0.00
6242,0.00
6243,0.00
6244,0.00
6245,0.00
6246,0.00
6247,0.00
6248,0.00
6249,0.00
6250,0.00
6251,0.00
6252,0.00
6253,0.00
6254,0.00
6255,0.00
6256,0.00
6257,0.00
6258,0.00
6259,0.00
6260,0.00
6261,0.00
6262,0.00
6263,0.00
6264,0.00
6265,0.00
6266,0.00
6267,0.00
6268,0.00
6269,0.00
6270,0.00
6271,0.00
6272,0.00
6273,0.00
6274,0.00
6275,0.00
6276,0.00
6277,0.00
6278,0.00
6279,0.00
6280,0.00
6281,0.00
6282,0.00
6283,0.00
6284,0.00
6285,0.00
6286,0.00
6287,0.00
6288,0.00
6289,0.00
6290,0.00
6291,0.00
6292,0.00
6293,0.00
6294,0.00
6295,0.00
6296,0.00
6297,0.00
6298,0.00
6299,0.00
6300,0.00
6301,0.00
6302,0.00
6303,0.00
6304,0.00
6305,0.00
6306,0.00
6307,0.00
6308,0.00
6309,0.00
6310,0.00
6311,0.00
6312,0.00
6313,0.00
6314,0.00
6315,0.00
6316,0.00
6317,0.00
6318,0.00
6319,0.00
6320,0.00
6321,0.00
6322,0.00
6323,0.00
6324,0.00
6325,0.00
6326,0.00
6327,0.00
6328,0.00
6329,0.00
6330,0.00
6331,0.00
6332,0.00
6333,0.00
6334,0.00
6335,0.00
6336,0.00
6337,0.00
6338,0.00
6339,0.00
6340,0.00
6341,0.00
6342,0.00
6343,0.00
6344,0.00
6345,0.00
6346,0.00
6347,0.00
6348,0.00
6349,0.00
6350,0.00
6351,0.00
6352,0.00
6353,0.00
6354,40.00
6355,0.00
6356,0.00
6357,0.00
6358,0.00
6359,0.00
6360,0.00
6361,0.00
6362,0.00
6363,0.00
6364,0.00
6365,0.00
6366,0.00
6367,0.00
6368,0.00
6369,0.00
6370,0.00
6371,0.00
6372,0.00
6373,0.00
6374,0.00
6375,0.00
6376,0.00
6377,0.00
6378,0.00
6379,0.00
6380,0.00
6381,0.00
6382,0.00
6383,0.00
6384,0.00
6385,0.00
6386,0.00
6387,0.00
6388,0.00
6389,0.00
6390,0.00
6391,0.00
6392,0.00
6393,0.00
6394,0.00
6395,0.00
6396,0.00
6397,0.00
6398,0.00
6399,0.00
6400,0.00
6401,0.00
6402,0.00
6403,0.00
6404,0.00
6405,0.00
6406,0.00
6407,0.00
6408,0.00
6409,0.00
6410,0.00
6411,0.00
6412,0.00
6413,40.00
6414,0.00
6415,0.00
6416,0.00
6417,0.00
6418,0.00
6419,0.00
6420,0.00
6421,0.00
6422,0.00
6423,0.00
6424,0.00
6425,0.00
6426,0.00
6427,0.00
6428,0.00
6429,0.00
6430,0.00
6431,0.00
6432,0.00
6433,0.00
6434,0.00
6435,0.00
6436,0.00
6437,0.00
6438,0.00
6439,0.00
6440,0.00
6441,40.00
6442,0.00
6443,0.00
6444,0.00
6445,0.00
6446,0.00
6447,0.00
6448,0.00
6449,0.00
6450,0.00
6451,0.00
6452,0.00
6453,0.00
6454,0.00
6455,0.00
6456,0.00
6457,0.00
6458,0.00
6459,0.00
6460,0.00
6461,0.00
6462,0.00
6463,0.00
6464,0.00
6465,0.00
6466,0.00
6467,0.00
6468,0.00
6469,0.00
6470,0.00
6471,0.00
6472,0.00
6473,0.00
6474,0.00
6475,0.00
6476,0.00
6477,0.00
6478,0.00
6479,0.00
6480,0.00
6481,0.00
6482,0.00
6483,0.00
6484,0.00
6485,0.00
6486,0.00
6487,0.00
6488,0.00
6489,0.00
6490,0.00
6491,0.00
6492,0.00
6493,0.00
6494,0.00
6495,0.00
6496,0.00
6497,0.00
6498,0.00
6499,0.00
6500,0.00
6501,0.00
6502,0.00
6503,0.00
6504,0.00
6505,0.00
6506,0.00
6507,0.00
6508,0.00
6509,0.00
6510,0.00
6511,0.00
6512,0.00
6513,0.00
6514,0.00
6515,0.00
6516,0.00
6517,0.00
6518,0.00
6519,0.00
6520,0.00
6521,0.00
6522,0.00
6523,0.00
6524,0.00
6525,0.00
6526,0.00
6527,0.00
6528,0.00
6529,0.00
6530,0.00
6531,0.00
6532,0.00
6533,0.00
6534,0.00
6535,0.00
6536,0.00
6537,0.00
6538,0.00
6539,0.00
6540,0.00
6541,0.00
6542,0.00
6543,0.00
6544,0.00
6545,0.00
6546,0.00
6547,0.00
6548,0.00
6549,0.00
6550,0.00
6551,0.00
6552,0.00
6553,0.00
6554,0.00
6555,0.00
6556,0.00
6557,0.00
6558,0.00
6559,0.00
6560,0.00
6561,0.00
6562,0.00
6563,0.00
6564,0.00
6565,0.00
6566,0.00
6567,0.00
6568,0.00
6569,0.00
6570,0.00
6571,0.00
6572,0.00
6573,0.00
6574,0.00
6575,0.00
6576,0.00
6577,0.00
6578,0.00
6579,0.00
6580,0.00
6581,0.00
6582,0.00
6583,0.00
6584,0.00
6585,0.00
6586,0.00
6587,0.00
6588,0.00
6589,0.00
6590,0.00
6591,0.00
6592,0.00
6593,0.00
6594,0.00
6595,0.00
6596,0.00
6597,0.00
6598,0.00
6599,0.00
6600,0.00
6601,0.00
6602,0.00
6603,0.00
6604,0.00
6605,0.00
6606,0.00
6607,0.00
6608,0.00
6609,0.00
6610,0.00
6611,0.00
6612,0.00
6613,0.00
6614,0.00
6615,0.00
6616,0.00
6617,0.00
6618,0.00
6619,0.00
6620,0.00
6621,0.00
6622,0.00
6623,0.00
6624,0.00
6625,0.00
6626,0.00
6627,0.00
6628,0.00
6629,0.00
6630,0.00
6631,0.00
6632,0.00
6633,0.00
6634,0.00
6635,0.00
6636,0.00
6637,0.00
6638,0.00
6639,0.00
6640,0.00
6641,0.00
6642,0.00
6643,0.00
6644,0.00
6645,0.00
6646,0.00
6647,0.00
6648,0.00
6649,0.00
6650,0.00
6651,0.00
6652,0.00
6653,0.00
6654,0.00
6655,0.00
6656,0.00
6657,0.00
6658,0.00
6659,0.00
6660,0.00
6661,0.00
6662,0.00
6663,0.00
6664,0.00
6665,0.00
6666,0.00
6667,0.00
6668,0.00
6669,0.00
6670,0.00
6671,0.00
6672,0.00
6673,0.00
6674,0.00
6675,0.00
6676,0.00
6677,0.00
6678,0.00
6679,0.00
6680,0.00
6681,0.00
6682,0.00
6683,0.00
6684,0.00
6685,0.00
6686,0.00
6687,0.00
6688,0.00
6689,0.00
6690,0.00
6691,0.00
6692,0.00
6693,0.00
6694,0.00
6695,0.00
6696,0.00
6697,0.00
6698,0.00
6699,0.00
6700,0.00
6701,0.00
6702,0.00
6703,0.00
6704,0.00
6705,0.00
6706,0.00
6707,0.00
6708,0.00
6709,0.00
6710,0.00
6711,0.00
6712,0.00
6713,0.00
6714,0.00
6715,0.00
6716,0.00
6717,0.00
6718,0.00
6719,0.00
6720,0.00
6721,0.00
6722,0.00
6723,0.00
6724,0.00
6725,0.00
6726,0.00
6727,0.00
6728,0.00
6729,0.00
6730,0.00
6731,0.00
6732,0.00
6733,0.00
6734,0.00
6735,0.00
6736,0.00
6737,0.00
6738,0.00
6739,0.00
6740,0.00
6741,0.00
6742,0.00
6743,0.00
6744,0.00
6745,0.00
6746,0.00
6747,0.00
6748,0.00
6749,0.00
6750,0.00
6751,0.00
6752,0.00
6753,0.00
6754,0.00
6755,0.00
6756,0.00
6757,0.00
6758,0.00
6759,0.00
6760,0.00
6761,0.00
6762,0.00
6763,0.00
6764,0.00
6765,0.00
6766,0.00
6767,0.00
6768,0.00
6769,0.00
6770,0.00
6771,0.00
6772,0.00
6773,0.00
6774,40.00
6775,0.00
6776,0.00
6777,0.00
6778,0.00
6779,0.00
6780,0.00
6781,0.00
6782,0.00
6783,0.00
6784,0.00
6785,0.00
6786,0.00
6787,0.00
6788,0.00
6789,0.00
6790,0.00
6791,0.00
6792,0.00
6793,0.00
6794,0.00
6795,0.00
6796,0.00
6797,0.00
6798,0.00
6799,0.00
6800,0.00
6801,0.00
6802,0.00
6803,0.00
6804,0.00
6805,0.00
6806,0.00
6807,0.00
6808,0.00
6809,0.00
6810,0.00
6811,0.00
6812,0.00
6813,0.00
6814,0.00
6815,0.00
6816,0.00
6817,0.00
6818,0.00
6819,0.00
6820,0.00
6821,0.00
6822,0.00
6823,0.00
6824,0.00
6825,0.00
6826,0.00
6827,0.00
6828,0.00
6829,0.00
6830,0.00
6831,0.00
6832,0.00
6833,0.00
6834,0.00
6835,0.00
6836,0.00
6837,0.00
6838,0.00
6839,0.00
6840,0.00
6841,0.00
6842,0.00
6843,0.00
6844,0.00
6845,0.00
6846,0.00
6847,0.00
6848,0.00
6849,0.00
6850,0.00
6851,0.00
6852,0.00
6853,0.00
6854,0.00
6855,0.00
6856,0.00
6857,0.00
6858,0.00
6859,0.00
6860,0.00
6861,0.00
6862,0.00
6863,0.00
6864,0.00
6865,0.00
6866,0.00
6867,0.00
6868,40.00
6869,0.00
6870,0.00
6871,0.00
6872,0.00
6873,0.00
6874,0.00
6875,0.00
6876,0.00
6877,0.00
6878,0.00
6879,0.00
6880,0.00
6881,0.00
6882,0.00
6883,0.00
6884,0.00
6885,0.00
6886,0.00
6887,0.00
6888,0.00
6889,0.00
6890,0.00
6891,0.00
6892,0.00
6893,0.00
6894,0.00
6895,0.00
6896,0.00
6897,0.00
6898,0.00
6899,0.00
6900,0.00
6901,0.00
6902,0.00
6903,0.00
6904,0.00
6905,0.00
6906,0.00
6907,0.00
6908,0.00
6909,0.00
6910,0.00
6911,0.00
6912,0.00
6913,0.00
6914,0.00
6915,0.00
6916,0.00
6917,0.00
6918,0.00
6919,0.00
6920,40.00
6921,0.00
6922,0.00
6923,0.00
6924,0.00
6925,0.00
6926,0.00
6927,0.00
6928,0.00
6929,0.00
6930,0.00
6931,0.00
6932,0.00
6933,0.00
6934,0.00
6935,0.00
6936,0.00
6937,0.00
6938,0.00
6939,0.00
6940,0.00
6941,0.00
6942,0.00
6943,0.00
6944,0.00
6945,0.00
6946,0.00
6947,0.00
6948,0.00
6949,0.00
6950,0.00
6951,0.00
6952,0.00
6953,0.00
6954,0.00
6955,0.00
6956,0.00
6957,0.00
6958,0.00
6959,0.00
6960,0.00
6961,0.00
6962,0.00
6963,0.00
6964,0.00
6965,0.00
6966,0.00
6967,0.00
6968,0.00
6969,0.00
6970,0.00
6971,0.00
6972,0.00
6973,0.00
6974,0.00
6975,0.00
6976,0.00
6977,0.00
6978,0.00
6979,0.00
6980,0.00
6981,0.00
6982,0.00
6983,0.00
6984,0.00
6985,40.00
6986,0.00
6987,0.00
6988,0.00
6989,0.00
6990,0.00
6991,0.00
6992,0.00
6993,0.00
6994,0.00
6995,0.00
6996,0.00
6997,0.00
6998,0.00
6999,0.00
7000,0.00
7001,0.00
7002,0.00
7003,0.00
7004,0.00
7005,0.00
7006,0.00
7007,0.00
7008,0.00
7009,0.00
7010,0.00
7011,0.00
7012,0.00
7013,0.00
7014,0.00
7015,0.00
7016,0.00
7017,0.00
7018,0.00
7019,0.00
7020,0.00
7021,0.00
7022,0.00
7023,0.00
7024,0.00
7025,40.00
7026,0.00
7027,40.00
7028,0.00
7029,0.00
7030,0.00
7031,0.00
7032,0.00
7033,0.00
7034,0.00
7035,0.00
7036,0.00
7037,0.00
7038,0.00
7039,0.00
7040,0.00
7041,0.00
7042,0.00
7043,0.00
7044,0.00
7045,0.00
7046,0.00
7047,0.00
7048,0.00
7049,0.00
7050,0.00
7051,0.00
7052,0.00
7053,0.00
7054,0.00
7055,0.00
7056,0.00
7057,0.00
7058,0.00
7059,0.00
7060,0.00
7061,0.00
7062,0.00
7063,0.00
7064,0.00
7065,0.00
7066,0.00
7067,0.00
7068,0.00
7069,0.00
7070,0.00
7071,0.00
7072,0.00
7073,0.00
7074,0.00
7075,0.00
7076,0.00
7077,0.00
7078,0.00
7079,0.00
7080,0.00
7081,0.00
7082,0.00
7083,40.00
7084,0.00
7085,0.00
7086,0.00
7087,0.00
7088,0.00
7089,0.00
7090,0.00
7091,0.00
7092,0.00
7093,0.00
7094,0.00
7095,0.00
7096,0.00
7097,0.00
7098,0.00
7099,0.00
7100,0.00
7101,0.00
7102,0.00
7103,0.00
7104,0.00
7105,0.00
7106,0.00
7107,0.00
7108,0.00
7109,0.00
7110,0.00
7111,0.00
7112,0.00
7113,0.00
7114,0.00
7115,0.00
7116,0.00
7117,0.00
7118,0.00
7119,0.00
7120,0.00
7121,0.00
7122,0.00
7123,0.00
7124,0.00
7125,0.00
7126,0.00
7127,0.00
7128,0.00
7129,0.00
7130,0.00
7131,0.00
7132,0.00
7133,0.00
7134,0.00
7135,0.00
7136,0.00
7137,0.00
7138,0.00
7139,0.00
7140,0.00
7141,0.00
7142,0.00
7143,0.00
7144,0.00
7145,0.00
7146,0.00
7147,0.00
7148,0.00
7149,0.00
7150,0.00
7151,0.00
7152,0.00
7153,0.00
7154,0.00
7155,0.00
7156,0.00
7157,0.00
7158,0.00
7159,0.00
7160,0.00
7161,0.00
7162,0.00
7163,0.00
7164,0.00
7165,0.00
7166,0.00
7167,0.00
7168,0.00
7169,0.00
7170,0.00
7171,0.00
7172,0.00
7173,0.00
7174,0.00
7175,0.00
7176,0.00
7177,0.00
7178,0.00
7179,0.00
7180,0.00
7181,0.00
7182,0.00
7183,0.00
7184,0.00
7185,0.00
7186,0.00
7187,0.00
7188,0.00
7189,0.00
7190,0.00
7191,0.00
7192,0.00
7193,0.00
7194,0.00
7195,0.00
7196,0.00
7197,0.00
7198,0.00
7199,0.00
7200,0.00
7201,0.00
7202,0.00
7203,0.00
7204,0.00
7205,0.00
7206,0.00
7207,0.00
7208,0.00
7209,0.00
7210,0.00
7211,0.00
7212,0.00
7213,0.00
7214,0.00
7215,0.00
7216,0.00
7217,0.00
7218,0.00
7219,0.00
7220,0.00
7221,0.00
7222,0.00
7223,0.00
7224,0.00
7225,0.00
7226,0.00
7227,0.00
7228,0.00
7229,0.00
7230,0.00
7231,0.00
7232,0.00
7233,0.00
7234,0.00
7235,0.00
7236,0.00
7237,0.00
7238,0.00
7239,0.00
7240,0.00
7241,0.00
7242,0.00
7243,0.00
7244,0.00
7245,0.00
7246,0.00
7247,0.00
7248,0.00
7249,40.00
7250,0.00
7251,0.00
7252,0.00
7253,0.00
7254,0.00
7255,0.00
7256,0.00
7257,0.00
7258,0.00
7259,0.00
7260,0.00
7261,0.00
7262,0.00
7263,0.00
7264,0.00
7265,0.00
7266,0.00
7267,0.00
7268,0.00
7269,0.00
7270,0.00
7271,0.00
7272,0.00
7273,0.00
7274,0.00
7275,0.00
7276,0.00
7277,0.00
7278,0.00
7279,0.00
7280,0.00
7281,0.00
7282,0.00
7283,0.00
7284,0.00
7285,0.00
7286,0.00
7287,0.00
7288,0.00
7289,0.00
7290,0.00
7291,0.00
7292,0.00
7293,0.00
7294,0.00
7295,0.00
7296,0.00
7297,0.00
7298,0.00
7299,0.00
7300,0.00
7301,0.00
7302,0.00
7303,0.00
7304,0.00
7305,0.00
7306,0.00
7307,0.00
7308,0.00
7309,0.00
7310,0.00
7311,0.00
7312,0.00
7313,0.00
7314,0.00
7315,0.00
7316,0.00
7317,0.00
7318,0.00
7319,0.00
7320,0.00
7321,0.00
7322,0.00
7323,0.00
7324,0.00
7325,0.00
7326,0.00
7327,0.00
7328,0.00
7329,0.00
7330,0.00
7331,0.00
7332,0.00
7333,0.00
7334,0.00
7335,0.00
7336,0.00
7337,0.00
7338,0.00
7339,0.00
7340,0.00
7341,0.00
7342,0.00
7343,0.00
7344,0.00
7345,0.00
7346,0.00
7347,0.00
7348,0.00
7349,0.00
7350,0.00
7351,0.00
7352,0.00
7353,0.00
7354,0.00
7355,0.00
7356,0.00
7357,0.00
7358,0.00
7359,0.00
7360,0.00
7361,0.00
7362,0.00
7363,0.00
7364,0.00
7365,0.00
7366,0.00
7367,0.00
7368,0.00
7369,0.00
7370,0.00
7371,0.00
7372,0.00
7373,0.00
7374,0.00
7375,0.00
7376,0.00
7377,0.00
7378,0.00
7379,0.00
7380,0.00
7381,0.00
7382,0.00
7383,0.00
7384,0.00
7385,0.00
7386,0.00
7387,0.00
7388,0.00
7389,0.00
7390,0.00
7391,0.00
7392,0.00
7393,0.00
7394,0.00
7395,0.00
7396,0.00
7397,0.00
7398,0.00
7399,0.00
7400,0.00
7401,0.00
7402,0.00
7403,0.00
7404,0.00
7405,0.00
7406,0.00
7407,0.00
7408,0.00
7409,0.00
7410,0.00
7411,0.00
7412,0.00
7413,0.00
7414,0.00
7415,0.00
7416,0.00
7417,40.00
7418,0.00
7419,0.00
7420,0.00
7421,0.00
7422,0.00
7423,0.00
7424,0.00
7425,0.00
7426,0.00
7427,0.00
7428,0.00
7429,0.00
7430,0.00
7431,0.00
7432,0.00
7433,0.00
7434,0.00
7435,40.00
7436,0.00
7437,0.00
7438,0.00
7439,0.00
7440,0.00
7441,0.00
7442,0.00
7443,0.00
7444,0.00
7445,0.00
7446,0.00
7447,0.00
7448,0.00
7449,0.00
7450,0.00
7451,0.00
7452,0.00
7453,0.00
7454,0.00
7455,0.00
7456,0.00
7457,0.00
7458,0.00
7459,40.00
7460,0.00
7461,0.00
7462,0.00
7463,0.00
7464,0.00
7465,0.00
7466,0.00
7467,0.00
7468,0.00
7469,0.00
7470,0.00
7471,0.00
7472,0.00
7473,0.00
7474,0.00
7475,0.00
7476,0.00
7477,0.00
7478,0.00
7479,0.00
7480,0.00
7481,0.00
7482,0.00
7483,0.00
7484,0.00
7485,0.00
7486,0.00
7487,0.00
7488,0.00
7489,0.00
7490,0.00
7491,0.00
7492,0.00
7493,0.00
7494,0.00
7495,0.00
7496,0.00
7497,0.00
7498,0.00
7499,40.00
7500,0.00
7501,0.00
7502,0.00
7503,0.00
7504,0.00
7505,0.00
7506,0.00
7507,0.00
7508,0.00
7509,0.00
7510,0.00
7511,0.00
7512,0.00
7513,0.00
7514,0.00
7515,0.00
7516,0.00
7517,0.00
7518,0.00
7519,0.00
7520,0.00
7521,0.00
7522,0.00
7523,0.00
7524,0.00
7525,0.00
7526,0.00
7527,0.00
7528,0.00
7529,40.00
7530,0.00
7531,0.00
7532,0.00
7533,0.00
7534,0.00
7535,0.00
7536,0.00
7537,0.00
7538,0.00
7539,0.00
7540,0.00
7541,0.00
7542,0.00
7543,0.00
7544,0.00
7545,0.00
7546,0.00
7547,0.00
7548,0.00
7549,0.00
7550,0.00
7551,0.00
7552,0.00
7553,0.00
7554,0.00
7555,0.00
7556,0.00
7557,0.00
7558,0.00
7559,0.00
7560,0.00
7561,0.00
7562,0.00
7563,0.00
7564,0.00
7565,0.00
7566,0.00
7567,0.00
7568,0.00
7569,0.00
7570,0.00
7571,0.00
7572,0.00
7573,0.00
7574,0.00
7575,0.00
7576,0.00
7577,0.00
7578,0.00
7579,0.00
7580,0.00
7581,0.00
7582,0.00
7583,0.00
7584,0.00
7585,0.00
7586,0.00
7587,0.00
7588,0.00
7589,0.00
7590,0.00
7591,0.00
7592,0.00
7593,0.00
7594,0.00
7595,0.00
7596,0.00
7597,0.00
7598,0.00
7599,0.00
7600,0.00
7601,0.00
7602,0.00
7603,0.00
7604,0.00
7605,0.00
7606,0.00
7607,0.00
7608,0.00
7609,0.00
7610,0.00
7611,0.00
7612,0.00
7613,0.00
7614,0.00
7615,0.00
7616,0.00
7617,0.00
7618,0.00
7619,0.00
7620,0.00
7621,0.00
7622,0.00
7623,0.00
7624,0.00
7625,0.00
7626,0.00
7627,0.00
7628,0.00
7629,0.00
7630,0.00
7631,0.00
7632,0.00
7633,0.00
7634,0.00
7635,0.00
7636,0.00
7637,0.00
7638,0.00
7639,0.00
7640,40.00
7641,0.00
7642,0.00
7643,0.00
7644,0.00
7645,0.00
7646,0.00
7647,0.00
7648,0.00
7649,0.00
7650,0.00
7651,40.00
7652,0.00
7653,0.00
7654,0.00
7655,0.00
7656,0.00
7657,0.00
7658,0.00
7659,0.00
7660,0.00
7661,0.00
7662,0.00
7663,0.00
7664,0.00
7665,0.00
7666,0.00
7667,0.00
7668,0.00
7669,0.00
7670,0.00
7671,0.00
7672,0.00
7673,0.00
7674,0.00
7675,0.00
7676,0.00
7677,0.00
7678,0.00
7679,0.00
7680,0.00
7681,0.00
7682,0.00
7683,0.00
7684,0.00
7685,0.00
7686,0.00
7687,0.00
7688,0.00
7689,0.00
7690,0.00
7691,0.00
7692,0.00
7693,0.00
7694,0.00
7695,0.00
7696,0.00
7697,0.00
7698,0.00
7699,0.00
7700,0.00
7701,0.00
7702,0.00
7703,0.00
7704,0.00
7705,0.00
7706,0.00
7707,0.00
7708,0.00
7709,0.00
7710,0.00
7711,0.00
7712,0.00
7713,0.00
7714,0.00
7715,0.00
7716,0.00
7717,0.00
7718,0.00
7719,0.00
7720,0.00
7721,0.00
7722,40.00
7723,0.00
7724,0.00
7725,0.00
7726,0.00
7727,0.00
7728,0.00
7729,40.00
7730,0.00
7731,0.00
7732,0.00
7733,0.00
7734,0.00
7735,0.00
7736,0.00
7737,0.00
7738,0.00
7739,0.00
7740,0.00
7741,0.00
7742,0.00
7743,0.00
7744,0.00
7745,0.00
7746,0.00
7747,0.00
7748,0.00
7749,0.00
7750,0.00
7751,0.00
7752,0.00
7753,0.00
7754,0.00
7755,0.00
7756,0.00
7757,0.00
7758,0.00
7759,0.00
7760,0.00
7761,0.00
7762,0.00
7763,0.00
7764,0.00
7765,0.00
7766,0.00
7767,0.00
7768,0.00
7769,0.00
7770,0.00
7771,0.00
7772,0.00
7773,0.00
7774,0.00
7775,0.00
7776,0.00
7777,0.00
7778,0.00
7779,0.00
7780,0.00
7781,0.00
7782,0.00
7783,0.00
7784,0.00
7785,0.00
7786,0.00
7787,0.00
7788,0.00
7789,0.00
7790,0.00
7791,0.00
7792,0.00
7793,0.00
7794,0.00
7795,0.00
7796,0.00
7797,0.00
7798,0.00
7799,0.00
7800,0.00
7801,0.00
7802,0.00
7803,0.00
7804,0.00
7805,0.00
7806,0.00
7807,0.00
7808,0.00
7809,0.00
7810,0.00
7811,0.00
7812,0.00
7813,0.00
7814,0.00
7815,0.00
7816,0.00
7817,0.00
7818,0.00
7819,0.00
7820,0.00
7821,0.00
7822,0.00
7823,0.00
7824,0.00
7825,0.00
7826,0.00
7827,0.00
7828,0.00
7829,0.00
7830,0.00
7831,0.00
7832,0.00
7833,0.00
7834,0.00
7835,0.00
7836,0.00
7837,0.00
7838,0.00
7839,0.00
7840,0.00
7841,0.00
7842,0.00
7843,0.00
7844,0.00
7845,0.00
7846,0.00
7847,0.00
7848,0.00
7849,0.00
7850,0.00
7851,0.00
7852,0.00
7853,0.00
7854,0.00
7855,0.00
7856,0.00
7857,0.00
7858,0.00
7859,0.00
7860,0.00
7861,0.00
7862,0.00
7863,0.00
7864,0.00
7865,0.00
7866,0.00
7867,0.00
7868,0.00
7869,0.00
7870,0.00
7871,0.00
7872,0.00
7873,0.00
7874,0.00
7875,0.00
7876,0.00
7877,0.00
7878,0.00
7879,0.00
7880,0.00
7881,0.00
7882,0.00
7883,0.00
7884,0.00
7885,0.00
7886,0.00
7887,0.00
7888,0.00
7889,0.00
7890,0.00
7891,0.00
7892,0.00
7893,0.00
7894,0.00
7895,0.00
7896,0.00
7897,0.00
7898,0.00
7899,0.00
7900,0.00
7901,0.00
7902,0.00
7903,0.00
7904,0.00
7905,0.00
7906,0.00
7907,0.00
7908,0.00
7909,0.00
7910,0.00
7911,0.00
7912,0.00
7913,0.00
7914,0.00
7915,0.00
7916,0.00
7917,0.00
7918,0.00
7919,0.00
7920,0.00
7921,0.00
7922,0.00
7923,0.00
7924,0.00
7925,0.00
7926,0.00
7927,0.00
7928,0.00
7929,0.00
7930,0.00
7931,0.00
7932,0.00
7933,0.00
7934,0.00
7935,0.00
7936,0.00
7937,0.00
7938,0.00
7939,0.00
7940,0.00
7941,0.00
7942,0.00
7943,0.00
7944,0.00
7945,0.00
7946,0.00
7947,0.00
7948,0.00
7949,0.00
7950,0.00
7951,0.00
7952,0.00
7953,0.00
7954,0.00
7955,0.00
7956,0.00
7957,0.00
7958,0.00
7959,0.00
7960,0.00
7961,0.00
7962,0.00
7963,0.00
7964,0.00
7965,0.00
7966,0.00
7967,0.00
7968,0.00
7969,0.00
7970,0.00
7971,0.00
7972,0.00
7973,0.00
7974,0.00
7975,0.00
7976,0.00
7977,0.00
7978,0.00
7979,0.00
7980,0.00
7981,0.00
7982,0.00
7983,0.00
7984,0.00
7985,0.00
7986,0.00
7987,0.00
7988,0.00
7989,0.00
7990,0.00
7991,0.00
7992,0.00
7993,0.00
7994,0.00
7995,0.00
7996,0.00
7997,0.00
7998,0.00
7999,0.00
